
Integration time [ms]:  10,000
Averaging Nr. [scans]: 30
Smoothing Nr. [pixels]: 0
Data measured with spectrometer [name]: 0901140U1
Wave   ;Sample   ;Dark     ;Reference;Scope
[nm]   ;[counts] ;[counts] ;[counts] 

 260,00;   Not Available
 261,00;   Not Available
 262,00;   Not Available
 263,00;   Not Available
 264,00;   Not Available
 265,00;   Not Available
 266,00;   Not Available
 267,00;   Not Available
 268,00;   Not Available
 269,00;   Not Available
 270,00;   Not Available
 271,00;   Not Available
 272,00;   Not Available
 273,00;   Not Available
 274,00;   Not Available
 275,00;   Not Available
 276,00;   Not Available
 277,00;   Not Available
 278,00;   Not Available
 279,00;   Not Available
 280,00;   Not Available
 281,00;   Not Available
 282,00;   Not Available
 283,00;   Not Available
 284,00;   Not Available
 285,00;   Not Available
 286,00;   Not Available
 287,00;   Not Available
 288,00;   Not Available
 289,00;   Not Available
 290,00;   Not Available
 291,00;   Not Available
 292,00;   Not Available
 293,00;   Not Available
 294,00;   Not Available
 295,00;   Not Available
 296,00;   Not Available
 297,00;   Not Available
 298,00;   Not Available
 299,00;   Not Available
 300,00;   Not Available
 301,00;   Not Available
 302,00;   Not Available
 303,00;   Not Available
 304,00;   Not Available
 305,00;   Not Available
 306,00;   Not Available
 307,00;   Not Available
 308,00;   Not Available
 309,00;   Not Available
 310,00;   Not Available
 311,00;   Not Available
 312,00;   Not Available
 313,00;   Not Available
 314,00;   Not Available
 315,00;   Not Available
 316,00;   Not Available
 317,00;   Not Available
 318,00;   Not Available
 319,00;   Not Available
 320,00;   Not Available
 321,00;   Not Available
 322,00;   Not Available
 323,00;   Not Available
 324,00;   Not Available
 325,00;   Not Available
 326,00;   Not Available
 327,00;   Not Available
 328,00;   Not Available
 329,00;   Not Available
 330,00;   Not Available
 331,00;   Not Available
 332,00;   Not Available
 333,00;   Not Available
 334,00;   Not Available
 335,00;   Not Available
 336,00;   Not Available
 337,00;   Not Available
 338,00;   Not Available
 339,00;   Not Available
 340,00;   Not Available
 341,00;   Not Available
 342,00;   Not Available
 343,00;    6,206;   -0,042; 5308,653
 344,00;   -6,091;    3,248; 5435,737
 345,00;    5,172;   -0,687; 5586,839
 346,00;    4,476;   -1,316; 5899,019
 347,00;    3,925;    0,583; 6169,222
 348,00;    7,929;    4,643; 6334,159
 349,00;    1,900;    1,589; 6593,907
 350,00;    0,346;   -0,161; 6639,549
 351,00;    8,432;   -3,740; 6811,936
 352,00;    5,186;    4,863; 6805,536
 353,00;    4,252;    3,098; 6722,142
 354,00;   -8,427;   11,456; 6660,788
 355,00;   -2,509;   -0,317; 6859,957
 356,00;    2,430;    3,085; 7013,905
 357,00;    5,380;    1,773; 7062,159
 358,00;   -0,470;   -1,850; 7139,153
 359,00;   -1,988;    5,362; 7172,313
 360,00;   10,197;   -0,945; 7184,622
 361,00;   -3,042;    4,640; 7271,278
 362,00;    5,291;    1,986; 7267,726
 363,00;    6,640;   -1,653; 7353,291
 364,00;    1,288;    3,267; 7347,788
 365,00;   -4,479;   -2,526; 7376,368
 366,00;    1,645;    5,423; 7425,625
 367,00;    4,131;    1,077; 7691,767
 368,00;   -5,366;   -0,660; 7901,408
 369,00;    7,299;   -2,295; 7832,170
 370,00;   -0,923;    0,997; 8026,802
 371,00;   -0,381;    0,108; 7804,205
 372,00;  -13,950;   -0,688; 7872,014
 373,00;  -10,271;    1,758; 7907,641
 374,00;  -10,490;    0,283; 7977,145
 375,00;   11,036;    0,361; 7791,377
 376,00;    1,235;    1,476; 7795,045
 377,00;   11,838;    4,076; 7797,232
 378,00;    3,356;    4,427; 8369,540
 379,00;    4,712;    6,374; 8415,530
 380,00;   -4,965;    4,474; 8362,086
 381,00;    1,283;    8,202; 8145,759
 382,00;   -1,375;    8,451; 8040,339
 383,00;   -2,368;    3,121; 7942,856
 384,00;   -1,195;    2,617; 7877,278
 385,00;    3,258;    1,733; 7830,965
 386,00;    2,083;    3,665; 8065,170
 387,00;   -1,772;    7,203; 8047,448
 388,00;    3,884;    4,292; 8521,671
 389,00;    1,017;    3,476; 8246,824
 390,00;    8,199;   -3,709; 8205,581
 391,00;    2,479;    0,076; 7955,041
 392,00;    4,250;    7,527; 8241,355
 393,00;    9,652;    1,829; 8365,932
 394,00;    9,768;    9,557; 7975,822
 395,00;   -5,387;   -2,359; 8086,842
 396,00;   -3,981;    5,159; 8008,916
 397,00;   -1,025;    7,819; 8328,379
 398,00;    6,305;    0,294; 8563,734
 399,00;   -0,644;    6,943; 8852,164
 400,00;    5,210;    5,366; 8319,759
 401,00;    2,205;    3,627; 7747,729
 402,00;    4,400;    1,281; 7571,799
 403,00;    3,059;    6,363; 7412,172
 404,00;    8,853;    5,728; 7669,434
 405,00;    2,997;    1,982; 7609,302
 406,00;    2,711;    0,823; 7620,879
 407,00;   -5,683;    6,431; 7442,482
 408,00;    5,493;    2,157; 7481,070
 409,00;    1,835;   -0,802; 7398,022
 410,00;   -7,017;    2,440; 7427,271
 411,00;   10,379;    3,476; 7405,718
 412,00;   -6,128;    6,473; 7360,099
 413,00;    2,282;    2,681; 7486,115
 414,00;   12,286;    2,528; 7927,028
 415,00;    0,765;    5,374; 7686,086
 416,00;   -1,277;    0,564; 7494,637
 417,00;   18,864;    1,319; 7471,791
 418,00;    2,021;    3,676; 7560,669
 419,00;    1,140;    4,244; 7755,964
 420,00;   -6,987;    3,001; 8012,610
 421,00;    2,312;    6,532; 8465,100
 422,00;    4,379;    6,996; 9161,408
 423,00;    0,866;   -2,817; 9191,825
 424,00;   -7,851;   -0,062; 9271,484
 425,00;   12,089;    5,149; 8852,789
 426,00;    6,223;    2,015; 8801,746
 427,00;   -0,079;    2,890; 8997,735
 428,00;    5,875;    2,147; 9554,482
 429,00;    0,163;    2,279; 9685,289
 430,00;    0,093;    6,943;10238,988
 431,00;    5,663;    2,435;10520,281
 432,00;   -2,353;    1,956; 9940,647
 433,00;    0,529;    0,383; 9535,601
 434,00;    2,045;    3,284; 9904,623
 435,00;    6,466;    1,111;10198,457
 436,00;    1,778;    3,710;10046,201
 437,00;    1,128;    2,990;10107,762
 438,00;    5,323;   -1,790;10187,177
 439,00;    0,149;    0,801; 9930,316
 440,00;   -3,033;    4,995; 9843,439
 441,00;    4,467;    4,683;10147,359
 442,00;   11,160;    1,708; 9880,016
 443,00;    0,621;    4,022; 9609,006
 444,00;   13,239;    4,970; 8842,917
 445,00;   12,864;    3,642; 8717,773
 446,00;   11,362;    0,294; 9108,867
 447,00;   -4,077;    3,214; 9446,540
 448,00;    2,545;    1,678;10103,260
 449,00;   -6,859;    4,529;10864,071
 450,00;   -8,434;    0,285;11428,142
 451,00;   -1,346;   -1,116;11859,538
 452,00;   14,266;    1,252;11920,851
 453,00;    5,164;    3,434;12365,451
 454,00;  -17,499;   -1,505;12348,034
 455,00;    1,250;    4,028;12907,695
 456,00;   -6,741;    6,445;13043,195
 457,00;   10,931;    3,011;13154,216
 458,00;    3,976;    3,227;13466,441
 459,00;    4,231;    1,747;13925,955
 460,00;   15,269;    2,647;13797,224
 461,00;    0,859;    4,310;13717,760
 462,00;   -7,256;    2,955;13603,510
 463,00;   -5,102;    1,672;13405,965
 464,00;   -6,838;    2,324;14202,312
 465,00;    3,729;    6,023;14951,125
 466,00;   -6,228;    2,250;15131,470
 467,00;    6,750;   -3,115;14825,442
 468,00;   10,545;    1,957;14679,288
 469,00;    0,697;   -1,137;14474,279
 470,00;    8,666;   -1,581;14051,918
 471,00;    3,114;    1,502;13976,505
 472,00;    1,281;    1,868;14369,674
 473,00;   12,420;   -0,932;14937,848
 474,00;   -2,937;    1,334;15444,499
 475,00;    3,869;   -1,157;15589,378
 476,00;    3,229;    6,891;16010,549
 477,00;    4,210;   -2,285;15962,462
 478,00;   -1,797;    3,104;16332,794
 479,00;    6,006;    5,322;16686,910
 480,00;   -4,032;    0,553;17099,205
 481,00;   -0,793;    5,806;17484,386
 482,00;    8,325;    3,372;17809,137
 483,00;    9,331;    2,125;17966,667
 484,00;   -3,469;   -3,126;18556,171
 485,00;   -6,287;    1,445;22468,907
 486,00;    4,223;    0,811;31549,406
 487,00;    0,079;   -1,395;31339,104
 488,00;    6,057;    6,628;20056,548
 489,00;   13,182;    3,347;18925,110
 490,00;    1,316;    5,383;19158,655
 491,00;   11,070;    1,072;19219,379
 492,00;   -2,708;    0,479;19039,717
 493,00;   11,468;    4,369;19073,019
 494,00;    0,618;   -1,705;19310,317
 495,00;    8,784;   -1,691;18904,344
 496,00;    6,965;    5,041;19320,323
 497,00;   -1,549;    0,713;19521,951
 498,00;   -5,961;    6,657;18975,697
 499,00;    5,674;    0,021;19205,823
 500,00;    9,087;   -0,637;19409,174
 501,00;    5,223;    6,167;19400,656
 502,00;   -6,903;    2,731;19825,945
 503,00;   -3,675;    3,819;19852,170
 504,00;   -1,310;    6,267;19545,973
 505,00;    5,339;    0,363;19039,183
 506,00;    6,791;    3,055;19003,583
 507,00;    2,239;    0,945;18811,889
 508,00;    5,238;   -1,997;18717,782
 509,00;    6,786;   -1,410;18586,254
 510,00;   -2,569;    3,725;18561,556
 511,00;    3,422;    2,462;18666,460
 512,00;   -3,722;    1,534;18630,675
 513,00;   -8,853;    9,685;18387,922
 514,00;  -16,252;    6,780;18242,142
 515,00;    6,234;    5,326;17622,089
 516,00;    9,792;    1,225;17554,524
 517,00;   -1,460;    1,162;17230,740
 518,00;    1,839;   22,620;17035,085
 519,00;    9,653;    4,323;16742,225
 520,00;    2,321;    3,130;16657,887
 521,00;   -5,514;    8,944;16327,533
 522,00;   -1,486;    7,491;16240,052
 523,00;   14,346;   -2,718;16176,654
 524,00;    6,569;   -4,601;16443,395
 525,00;    6,065;    4,013;16357,991
 526,00;   -4,378;    8,007;16480,530
 527,00;    0,376;    6,683;16252,598
 528,00;    7,589;    4,062;16653,785
 529,00;   17,358;    4,644;16864,332
 530,00;   -7,501;   -0,177;17253,771
 531,00;   10,089;   -0,185;17030,089
 532,00;   -6,694;    1,673;17490,817
 533,00;    2,788;    0,578;18275,787
 534,00;   -4,035;    6,339;19191,745
 535,00;    6,313;   -0,042;19583,412
 536,00;  -11,736;   -5,456;19801,991
 537,00;    4,316;    3,493;19468,151
 538,00;    7,614;    3,718;19791,057
 539,00;   15,143;    7,833;19953,273
 540,00;   -1,066;    2,284;19774,906
 541,00;   26,347;    4,635;19327,634
 542,00;   19,552;    0,439;19376,597
 543,00;   23,553;    1,270;19258,235
 544,00;    7,135;   -0,154;19421,154
 545,00;   31,475;    6,065;19569,175
 546,00;   20,211;   -1,895;19720,234
 547,00;   32,635;    0,648;19926,118
 548,00;    2,596;    0,086;20885,498
 549,00;   14,297;   -0,038;21048,594
 550,00;    9,429;    4,478;20441,229
 551,00;   16,796;    0,368;20291,522
 552,00;   -1,677;   -0,605;20750,020
 553,00;    4,721;    6,332;21136,333
 554,00;   -1,394;    3,933;21175,515
 555,00;    6,493;    2,375;21441,113
 556,00;    3,730;    0,634;22267,749
 557,00;   11,337;    1,533;22532,690
 558,00;    3,200;    4,612;23078,812
 559,00;    8,876;    3,711;23491,301
 560,00;   -5,915;   -1,764;24464,614
 561,00;    7,682;    6,008;25434,026
 562,00;    4,774;    2,368;25900,670
 563,00;   -0,642;   -1,849;26285,369
 564,00;   -0,443;   11,938;26912,675
 565,00;    9,064;    5,430;27477,788
 566,00;    0,018;    2,382;27874,917
 567,00;   -1,838;    3,512;28666,529
 568,00;   -3,146;    2,958;29770,636
 569,00;    6,538;   -0,522;31102,097
 570,00;    0,211;    0,188;32978,253
 571,00;    3,918;    2,910;34369,629
 572,00;    0,937;    3,662;35240,696
 573,00;    7,532;   -1,779;35774,339
 574,00;   -3,010;    2,880;36874,327
 575,00;    3,946;    0,981;37501,588
 576,00;    7,013;    7,072;37331,900
 577,00;   -6,108;    6,284;37778,065
 578,00;    4,561;   -2,775;38695,355
 579,00;    2,894;    6,153;38248,724
 580,00;    3,291;    4,260;37071,396
 581,00;   -8,369;    5,770;38578,649
 582,00;    3,802;    2,590;39207,020
 583,00;    8,631;    5,177;37470,977
 584,00;   10,310;    5,213;35636,726
 585,00;   17,933;    2,963;36323,937
 586,00;    2,000;    0,225;36611,662
 587,00;    4,763;    2,959;36328,456
 588,00;    5,852;    7,420;36086,156
 589,00;    8,408;    5,812;35896,728
 590,00;    5,134;    5,054;35650,694
 591,00;    4,470;    8,888;35815,884
 592,00;   13,376;    6,022;36089,818
 593,00;    0,140;   -0,248;36859,857
 594,00;    0,220;   -1,801;36792,130
 595,00;   -1,702;    3,127;36973,920
 596,00;    6,257;    0,218;36879,888
 597,00;    0,369;    6,610;37328,150
 598,00;    8,141;    0,515;37101,256
 599,00;   -0,213;    1,860;37353,732
 600,00;   16,220;    5,298;37386,589
 601,00;    0,430;    2,013;37851,726
 602,00;    4,577;    0,092;36887,099
 603,00;    4,681;    0,589;37382,548
 604,00;   10,832;    3,939;36696,808
 605,00;   -3,573;    4,699;36721,164
 606,00;    4,891;    1,771;36169,331
 607,00;    7,269;    4,815;36331,526
 608,00;   16,962;    7,694;35668,702
 609,00;    7,175;   -1,222;35820,190
 610,00;   19,095;    4,886;35288,211
 611,00;   40,124;    4,182;35331,259
 612,00;   51,004;   -0,146;34836,154
 613,00;   28,538;   -2,113;34671,862
 614,00;   20,516;    0,070;34298,335
 615,00;    8,701;    0,562;34331,296
 616,00;    9,644;    2,960;34028,695
 617,00;   10,669;    5,008;34144,864
 618,00;    3,579;    2,960;34200,385
 619,00;    3,386;    1,023;34374,462
 620,00;    6,868;    2,619;34782,222
 621,00;    9,857;    6,023;35152,758
 622,00;    4,416;    0,418;35441,372
 623,00;   20,663;    5,531;36021,990
 624,00;   14,038;    0,388;36494,263
 625,00;   20,030;    6,006;36262,749
 626,00;   -0,540;    1,077;36732,193
 627,00;    4,758;    5,224;36698,499
 628,00;    1,816;    0,370;37373,709
 629,00;   12,200;    9,106;37579,336
 630,00;   -7,471;   -0,291;38028,031
 631,00;    8,549;    3,879;38202,109
 632,00;   -3,332;    5,007;38990,489
 633,00;   10,763;    0,551;39293,266
 634,00;  -10,067;    0,404;40032,573
 635,00;    5,909;    3,114;40600,067
 636,00;  -11,148;    5,063;41558,948
 637,00;    5,284;    2,150;41885,449
 638,00;    5,203;    2,875;42892,711
 639,00;    9,371;    2,905;43655,095
 640,00;   -0,421;    3,107;44176,099
 641,00;    1,668;    4,516;44978,812
 642,00;    1,862;    6,812;45765,159
 643,00;    2,989;    7,026;46324,008
 644,00;   17,812;    5,651;46714,845
 645,00;    2,802;    0,864;47229,471
 646,00;   -0,854;    0,634;47893,808
 647,00;    7,109;    2,331;48047,108
 648,00;   12,338;    3,025;48312,216
 649,00;    7,204;    4,851;48508,625
 650,00;    5,024;    0,434;48522,038
 651,00;    2,795;    3,312;49018,126
 652,00;    7,310;    2,491;48531,035
 653,00;    8,822;    0,635;48870,640
 654,00;   -3,337;    0,401;48778,588
 655,00;    2,327;   -0,224;49845,531
 656,00;   15,469;   -0,043;55463,470
 657,00;    1,411;    0,637;56631,300
 658,00;   16,132;    8,040;49246,714
 659,00;    0,901;    2,697;49158,694
 660,00;   12,447;    2,498;48768,216
 661,00;    6,181;    4,144;48814,878
 662,00;    0,257;    5,911;48876,194
 663,00;    3,825;    3,329;48702,559
 664,00;    3,079;    1,404;48892,247
 665,00;    6,888;    2,870;49183,260
 666,00;   16,509;    1,339;49689,752
 667,00;    4,361;    2,657;49188,088
 668,00;   -1,564;    2,678;49895,399
 669,00;    6,023;    3,936;49712,233
 670,00;   -2,051;    2,760;50304,498
 671,00;   -4,317;    0,201;50279,333
 672,00;   -4,843;    6,155;50457,989
 673,00;   14,975;    6,194;50480,294
 674,00;  -14,097;    6,817;51278,567
 675,00;    8,401;    4,144;50519,404
 676,00;   -5,765;    4,146;51341,541
 677,00;    4,111;    5,625;50461,849
 678,00;    3,975;    1,109;50993,719
 679,00;   11,736;    4,677;50473,464
 680,00;   -4,153;    4,174;50803,425
 681,00;    9,938;    0,235;49968,370
 682,00;    6,147;    0,662;50400,417
 683,00;    4,406;    2,125;49930,562
 684,00;    3,204;    7,792;49692,460
 685,00;    4,452;    3,155;49829,487
 686,00;   15,356;    5,728;49799,843
 687,00;   -0,714;    2,544;50213,077
 688,00;    7,190;    5,236;49460,159
 689,00;   -1,052;    3,807;50051,820
 690,00;    7,550;   -2,713;49086,613
 691,00;    7,761;    5,767;50208,881
 692,00;    9,687;    8,461;49553,000
 693,00;   -7,835;   -4,389;49815,210
 694,00;   13,348;   -4,831;49597,372
 695,00;    2,078;    1,650;49860,159
 696,00;   17,232;    0,391;49573,614
 697,00;   -0,239;    3,312;50198,054
 698,00;   -4,207;    5,182;49775,512
 699,00;    4,267;    1,389;49993,374
 700,00;    1,758;    5,814;50249,553
 701,00;    2,195;   -6,151;49671,834
 702,00;    0,098;   24,422;50178,262
 703,00;  -10,387;    1,372;49507,536
 704,00;    9,510;    2,128;49640,561
 705,00;    6,979;    2,489;49545,116
 706,00;    8,202;    6,002;49614,926
 707,00;    9,248;    5,496;49508,597
 708,00;    5,074;    0,281;49185,260
 709,00;   -0,546;    0,928;48762,067
 710,00;    5,515;    0,257;48784,377
 711,00;   -5,750;    2,116;48442,609
 712,00;    7,742;    2,398;48379,045
 713,00;    0,982;    3,319;48124,926
 714,00;   -1,114;    3,323;47788,560
 715,00;    6,898;    2,670;47352,499
 716,00;    1,129;    1,001;47327,557
 717,00;    6,772;   -0,767;47075,032
 718,00;    5,675;    4,123;46231,429
 719,00;  -11,066;    4,611;46379,970
 720,00;   -4,030;    5,204;45934,552
 721,00;    3,143;    5,484;46184,420
 722,00;   12,932;   -1,745;45333,735
 723,00;   -2,627;   -4,147;45312,754
 724,00;    1,820;    1,669;45384,225
 725,00;   10,054;    3,052;45169,462
 726,00;    3,290;   -1,233;45215,307
 727,00;   -9,128;    4,459;45402,216
 728,00;   12,836;    3,743;45198,493
 729,00;  -13,927;   -0,075;45036,927
 730,00;   -4,328;    2,884;45281,836
 731,00;    6,423;    2,623;45243,883
 732,00;  -10,030;    9,943;45542,623
 733,00;   -2,523;   -1,006;45407,017
 734,00;    1,248;   -3,252;45594,318
 735,00;   10,136;   -1,722;45662,838
 736,00;   -0,148;    6,782;45648,534
 737,00;    4,524;    7,536;45893,661
 738,00;    0,501;    8,522;45643,223
 739,00;   -1,766;    7,767;45171,118
 740,00;   -2,879;    2,215;45144,134
 741,00;   -0,701;    3,690;45207,829
 742,00;    7,311;    4,659;45004,046
 743,00;   -2,421;    5,013;44853,548
 744,00;    3,514;    1,821;44322,740
 745,00;    6,118;    7,429;44563,896
 746,00;    3,242;    1,159;44189,251
 747,00;    4,774;    8,505;43951,240
 748,00;   11,809;    7,888;43273,005
 749,00;   -2,325;    2,018;43377,164
 750,00;    0,530;    3,416;43159,180
 751,00;    1,951;    4,206;42515,226
 752,00;    9,473;    5,343;42079,535
 753,00;    0,034;    5,282;41340,851
 754,00;   -5,442;    2,805;41319,095
 755,00;   -2,835;    3,716;40276,796
 756,00;   -1,847;    6,277;40243,016
 757,00;    4,308;    3,754;39576,232
 758,00;    0,887;    7,402;39704,427
 759,00;    9,638;    7,962;39000,068
 760,00;   -3,683;    0,977;38547,462
 761,00;   -1,509;    4,183;38153,991
 762,00;    0,172;    3,050;37786,002
 763,00;    5,336;    5,642;37426,534
 764,00;   -1,888;    1,250;37181,135
 765,00;   -1,650;   -0,754;37171,447
 766,00;   -5,882;    5,452;36472,322
 767,00;   -0,142;    4,444;36253,979
 768,00;   -4,965;    1,429;36376,863
 769,00;  -15,729;   -1,182;36175,867
 770,00;    2,359;   -1,209;35848,783
 771,00;   16,876;   10,193;36034,098
 772,00;   -0,753;    1,801;35733,893
 773,00;    4,829;    6,087;35890,631
 774,00;    7,454;    5,606;35598,640
 775,00;   -2,691;    1,026;35517,664
 776,00;    0,009;    6,113;35840,170
 777,00;    7,671;    3,884;35458,882
 778,00;   -3,852;    1,515;35524,560
 779,00;   -2,094;    0,783;35476,436
 780,00;    0,755;    4,404;35814,053
 781,00;   20,359;    3,630;35835,393
 782,00;   -2,485;   -0,328;36141,052
 783,00;    0,030;    0,491;36275,895
 784,00;    0,378;    7,288;36455,008
 785,00;   -7,552;    1,558;36454,477
 786,00;    2,656;    4,119;36609,201
 787,00;    2,993;    3,715;36901,355
 788,00;   -0,690;    4,785;36724,684
 789,00;    2,341;    1,940;36884,133
 790,00;   -3,677;    2,064;36639,539
 791,00;   -9,767;    5,108;37085,536
 792,00;   -0,895;    6,224;36549,884
 793,00;   -9,951;    6,098;36684,174
 794,00;    0,820;    5,712;36363,303
 795,00;    4,904;   -0,945;36473,159
 796,00;    6,647;    0,387;36404,456
 797,00;    4,331;    2,339;36042,595
 798,00;   -4,868;   -3,596;35780,798
 799,00;    8,682;    4,808;35420,531
 800,00;   -6,288;    4,171;35284,582
 801,00;    5,177;    5,810;34440,825
 802,00;    1,840;   -2,867;34443,663
 803,00;   12,916;    2,139;34307,753
 804,00;    0,228;    2,001;34113,270
 805,00;    6,038;    2,988;33636,256
 806,00;    7,583;   -0,298;33060,784
 807,00;    3,944;   -0,155;33033,672
 808,00;    8,530;    4,308;32711,975
