
Integration time [ms]:  10,000
Averaging Nr. [scans]: 30
Smoothing Nr. [pixels]: 0
Data measured with spectrometer [name]: 0901140U1
Wave   ;Sample   ;Dark     ;Reference;Scope
[nm]   ;[counts] ;[counts] ;[counts] 

 260,00;   Not Available
 261,00;   Not Available
 262,00;   Not Available
 263,00;   Not Available
 264,00;   Not Available
 265,00;   Not Available
 266,00;   Not Available
 267,00;   Not Available
 268,00;   Not Available
 269,00;   Not Available
 270,00;   Not Available
 271,00;   Not Available
 272,00;   Not Available
 273,00;   Not Available
 274,00;   Not Available
 275,00;   Not Available
 276,00;   Not Available
 277,00;   Not Available
 278,00;   Not Available
 279,00;   Not Available
 280,00;   Not Available
 281,00;   Not Available
 282,00;   Not Available
 283,00;   Not Available
 284,00;   Not Available
 285,00;   Not Available
 286,00;   Not Available
 287,00;   Not Available
 288,00;   Not Available
 289,00;   Not Available
 290,00;   Not Available
 291,00;   Not Available
 292,00;   Not Available
 293,00;   Not Available
 294,00;   Not Available
 295,00;   Not Available
 296,00;   Not Available
 297,00;   Not Available
 298,00;   Not Available
 299,00;   Not Available
 300,00;   Not Available
 301,00;   Not Available
 302,00;   Not Available
 303,00;   Not Available
 304,00;   Not Available
 305,00;   Not Available
 306,00;   Not Available
 307,00;   Not Available
 308,00;   Not Available
 309,00;   Not Available
 310,00;   Not Available
 311,00;   Not Available
 312,00;   Not Available
 313,00;   Not Available
 314,00;   Not Available
 315,00;   Not Available
 316,00;   Not Available
 317,00;   Not Available
 318,00;   Not Available
 319,00;   Not Available
 320,00;   Not Available
 321,00;   Not Available
 322,00;   Not Available
 323,00;   Not Available
 324,00;   Not Available
 325,00;   Not Available
 326,00;   Not Available
 327,00;   Not Available
 328,00;   Not Available
 329,00;   Not Available
 330,00;   Not Available
 331,00;   Not Available
 332,00;   Not Available
 333,00;   Not Available
 334,00;   Not Available
 335,00;   Not Available
 336,00;   Not Available
 337,00;   Not Available
 338,00;   Not Available
 339,00;   Not Available
 340,00;   Not Available
 341,00;   Not Available
 342,00;   Not Available
 343,00;    7,286;   -0,042; 5308,653
 344,00;    2,100;    3,248; 5435,737
 345,00;    7,126;   -0,687; 5586,839
 346,00;    6,602;   -1,316; 5899,019
 347,00;    1,260;    0,583; 6169,222
 348,00;    8,969;    4,643; 6334,159
 349,00;    5,930;    1,589; 6593,907
 350,00;   12,359;   -0,161; 6639,549
 351,00;   -3,003;   -3,740; 6811,936
 352,00;   13,324;    4,863; 6805,536
 353,00;    6,411;    3,098; 6722,142
 354,00;   -0,132;   11,456; 6660,788
 355,00;   -5,838;   -0,317; 6859,957
 356,00;    0,451;    3,085; 7013,905
 357,00;    5,633;    1,773; 7062,159
 358,00;   -2,076;   -1,850; 7139,153
 359,00;    5,761;    5,362; 7172,313
 360,00;    5,374;   -0,945; 7184,622
 361,00;   13,157;    4,640; 7271,278
 362,00;    6,185;    1,986; 7267,726
 363,00;    6,736;   -1,653; 7353,291
 364,00;    7,617;    3,267; 7347,788
 365,00;    8,149;   -2,526; 7376,368
 366,00;   10,045;    5,423; 7425,625
 367,00;    0,480;    1,077; 7691,767
 368,00;   -3,108;   -0,660; 7901,408
 369,00;    7,191;   -2,295; 7832,170
 370,00;   -1,336;    0,997; 8026,802
 371,00;    3,201;    0,108; 7804,205
 372,00;  -13,891;   -0,688; 7872,014
 373,00;   13,784;    1,758; 7907,641
 374,00;   -4,195;    0,283; 7977,145
 375,00;   -5,074;    0,361; 7791,377
 376,00;   11,098;    1,476; 7795,045
 377,00;    3,656;    4,076; 7797,232
 378,00;   10,102;    4,427; 8369,540
 379,00;   -1,089;    6,374; 8415,530
 380,00;    6,889;    4,474; 8362,086
 381,00;    6,854;    8,202; 8145,759
 382,00;    7,812;    8,451; 8040,339
 383,00;    7,248;    3,121; 7942,856
 384,00;    6,045;    2,617; 7877,278
 385,00;    6,561;    1,733; 7830,965
 386,00;   11,043;    3,665; 8065,170
 387,00;   10,293;    7,203; 8047,448
 388,00;   16,870;    4,292; 8521,671
 389,00;    4,842;    3,476; 8246,824
 390,00;   16,179;   -3,709; 8205,581
 391,00;    1,340;    0,076; 7955,041
 392,00;    6,929;    7,527; 8241,355
 393,00;    5,050;    1,829; 8365,932
 394,00;   13,408;    9,557; 7975,822
 395,00;    3,903;   -2,359; 8086,842
 396,00;    8,248;    5,159; 8008,916
 397,00;   -1,605;    7,819; 8328,379
 398,00;   16,157;    0,294; 8563,734
 399,00;   -5,227;    6,943; 8852,164
 400,00;    6,469;    5,366; 8319,759
 401,00;    8,620;    3,627; 7747,729
 402,00;    4,303;    1,281; 7571,799
 403,00;   12,713;    6,363; 7412,172
 404,00;    5,240;    5,728; 7669,434
 405,00;    8,899;    1,982; 7609,302
 406,00;    0,744;    0,823; 7620,879
 407,00;    0,202;    6,431; 7442,482
 408,00;    7,168;    2,157; 7481,070
 409,00;    2,454;   -0,802; 7398,022
 410,00;    0,926;    2,440; 7427,271
 411,00;    3,749;    3,476; 7405,718
 412,00;    8,571;    6,473; 7360,099
 413,00;   20,320;    2,681; 7486,115
 414,00;   15,685;    2,528; 7927,028
 415,00;   -1,814;    5,374; 7686,086
 416,00;    1,725;    0,564; 7494,637
 417,00;    7,872;    1,319; 7471,791
 418,00;    4,389;    3,676; 7560,669
 419,00;    6,082;    4,244; 7755,964
 420,00;   10,711;    3,001; 8012,610
 421,00;    1,203;    6,532; 8465,100
 422,00;   20,784;    6,996; 9161,408
 423,00;    6,424;   -2,817; 9191,825
 424,00;   13,552;   -0,062; 9271,484
 425,00;   15,962;    5,149; 8852,789
 426,00;    1,847;    2,015; 8801,746
 427,00;    7,169;    2,890; 8997,735
 428,00;   15,760;    2,147; 9554,482
 429,00;    4,326;    2,279; 9685,289
 430,00;    8,415;    6,943;10238,988
 431,00;    4,939;    2,435;10520,281
 432,00;   19,233;    1,956; 9940,647
 433,00;    8,796;    0,383; 9535,601
 434,00;    9,402;    3,284; 9904,623
 435,00;    9,376;    1,111;10198,457
 436,00;   24,944;    3,710;10046,201
 437,00;    5,517;    2,990;10107,762
 438,00;    6,145;   -1,790;10187,177
 439,00;   12,433;    0,801; 9930,316
 440,00;   19,326;    4,995; 9843,439
 441,00;    8,893;    4,683;10147,359
 442,00;   10,701;    1,708; 9880,016
 443,00;    3,126;    4,022; 9609,006
 444,00;   13,314;    4,970; 8842,917
 445,00;    3,855;    3,642; 8717,773
 446,00;    6,292;    0,294; 9108,867
 447,00;    3,805;    3,214; 9446,540
 448,00;   11,584;    1,678;10103,260
 449,00;    1,334;    4,529;10864,071
 450,00;    5,338;    0,285;11428,142
 451,00;    4,137;   -1,116;11859,538
 452,00;   15,226;    1,252;11920,851
 453,00;    7,977;    3,434;12365,451
 454,00;    4,250;   -1,505;12348,034
 455,00;    7,869;    4,028;12907,695
 456,00;    1,976;    6,445;13043,195
 457,00;   12,431;    3,011;13154,216
 458,00;   11,676;    3,227;13466,441
 459,00;   14,150;    1,747;13925,955
 460,00;   10,472;    2,647;13797,224
 461,00;   12,005;    4,310;13717,760
 462,00;   18,149;    2,955;13603,510
 463,00;    4,014;    1,672;13405,965
 464,00;   10,265;    2,324;14202,312
 465,00;    4,738;    6,023;14951,125
 466,00;   14,088;    2,250;15131,470
 467,00;   12,441;   -3,115;14825,442
 468,00;   17,021;    1,957;14679,288
 469,00;   11,894;   -1,137;14474,279
 470,00;   16,134;   -1,581;14051,918
 471,00;   13,610;    1,502;13976,505
 472,00;   10,090;    1,868;14369,674
 473,00;   18,280;   -0,932;14937,848
 474,00;   20,937;    1,334;15444,499
 475,00;   18,687;   -1,157;15589,378
 476,00;   25,013;    6,891;16010,549
 477,00;   29,797;   -2,285;15962,462
 478,00;   27,011;    3,104;16332,794
 479,00;   30,020;    5,322;16686,910
 480,00;   34,531;    0,553;17099,205
 481,00;   39,741;    5,806;17484,386
 482,00;   48,510;    3,372;17809,137
 483,00;   51,780;    2,125;17966,667
 484,00;   55,072;   -3,126;18556,171
 485,00;   63,190;    1,445;22468,907
 486,00;   78,257;    0,811;31549,406
 487,00;   88,205;   -1,395;31339,104
 488,00;   88,901;    6,628;20056,548
 489,00;   96,081;    3,347;18925,110
 490,00;  104,305;    5,383;19158,655
 491,00;  143,155;    1,072;19219,379
 492,00;  145,048;    0,479;19039,717
 493,00;  174,075;    4,369;19073,019
 494,00;  180,274;   -1,705;19310,317
 495,00;  208,663;   -1,691;18904,344
 496,00;  254,900;    5,041;19320,323
 497,00;  278,203;    0,713;19521,951
 498,00;  308,969;    6,657;18975,697
 499,00;  373,185;    0,021;19205,823
 500,00;  398,352;   -0,637;19409,174
 501,00;  461,019;    6,167;19400,656
 502,00;  529,996;    2,731;19825,945
 503,00;  598,171;    3,819;19852,170
 504,00;  683,903;    6,267;19545,973
 505,00;  748,891;    0,363;19039,183
 506,00;  832,754;    3,055;19003,583
 507,00;  931,448;    0,945;18811,889
 508,00; 1060,067;   -1,997;18717,782
 509,00; 1184,548;   -1,410;18586,254
 510,00; 1341,136;    3,725;18561,556
 511,00; 1493,585;    2,462;18666,460
 512,00; 1629,186;    1,534;18630,675
 513,00; 1743,818;    9,685;18387,922
 514,00; 1994,151;    6,780;18242,142
 515,00; 2151,843;    5,326;17622,089
 516,00; 2248,370;    1,225;17554,524
 517,00; 2449,234;    1,162;17230,740
 518,00; 2592,448;   22,620;17035,085
 519,00; 2652,087;    4,323;16742,225
 520,00; 2954,803;    3,130;16657,887
 521,00; 2977,246;    8,944;16327,533
 522,00; 3124,498;    7,491;16240,052
 523,00; 3239,747;   -2,718;16176,654
 524,00; 3388,132;   -4,601;16443,395
 525,00; 3340,460;    4,013;16357,991
 526,00; 3433,204;    8,007;16480,530
 527,00; 3431,892;    6,683;16252,598
 528,00; 3390,277;    4,062;16653,785
 529,00; 3507,824;    4,644;16864,332
 530,00; 3466,652;   -0,177;17253,771
 531,00; 3440,224;   -0,185;17030,089
 532,00; 3325,329;    1,673;17490,817
 533,00; 3397,184;    0,578;18275,787
 534,00; 3111,752;    6,339;19191,745
 535,00; 3221,149;   -0,042;19583,412
 536,00; 3026,952;   -5,456;19801,991
 537,00; 2874,854;    3,493;19468,151
 538,00; 2835,980;    3,718;19791,057
 539,00; 2708,716;    7,833;19953,273
 540,00; 2649,354;    2,284;19774,906
 541,00; 2628,949;    4,635;19327,634
 542,00; 2443,809;    0,439;19376,597
 543,00; 2375,055;    1,270;19258,235
 544,00; 2195,251;   -0,154;19421,154
 545,00; 2138,333;    6,065;19569,175
 546,00; 2081,868;   -1,895;19720,234
 547,00; 2027,248;    0,648;19926,118
 548,00; 1842,220;    0,086;20885,498
 549,00; 1851,710;   -0,038;21048,594
 550,00; 1678,312;    4,478;20441,229
 551,00; 1637,228;    0,368;20291,522
 552,00; 1518,848;   -0,605;20750,020
 553,00; 1423,472;    6,332;21136,333
 554,00; 1365,081;    3,933;21175,515
 555,00; 1342,869;    2,375;21441,113
 556,00; 1210,127;    0,634;22267,749
 557,00; 1167,898;    1,533;22532,690
 558,00; 1118,489;    4,612;23078,812
 559,00; 1040,105;    3,711;23491,301
 560,00;  951,620;   -1,764;24464,614
 561,00;  928,228;    6,008;25434,026
 562,00;  849,488;    2,368;25900,670
 563,00;  803,089;   -1,849;26285,369
 564,00;  770,968;   11,938;26912,675
 565,00;  683,287;    5,430;27477,788
 566,00;  626,245;    2,382;27874,917
 567,00;  621,107;    3,512;28666,529
 568,00;  565,359;    2,958;29770,636
 569,00;  541,501;   -0,522;31102,097
 570,00;  509,329;    0,188;32978,253
 571,00;  485,761;    2,910;34369,629
 572,00;  440,053;    3,662;35240,696
 573,00;  421,301;   -1,779;35774,339
 574,00;  381,561;    2,880;36874,327
 575,00;  365,160;    0,981;37501,588
 576,00;  345,720;    7,072;37331,900
 577,00;  317,741;    6,284;37778,065
 578,00;  303,655;   -2,775;38695,355
 579,00;  290,953;    6,153;38248,724
 580,00;  246,976;    4,260;37071,396
 581,00;  231,307;    5,770;38578,649
 582,00;  224,785;    2,590;39207,020
 583,00;  201,958;    5,177;37470,977
 584,00;  204,883;    5,213;35636,726
 585,00;  178,493;    2,963;36323,937
 586,00;  170,696;    0,225;36611,662
 587,00;  160,426;    2,959;36328,456
 588,00;  146,672;    7,420;36086,156
 589,00;  141,727;    5,812;35896,728
 590,00;  141,739;    5,054;35650,694
 591,00;  143,270;    8,888;35815,884
 592,00;  126,321;    6,022;36089,818
 593,00;  119,100;   -0,248;36859,857
 594,00;  105,731;   -1,801;36792,130
 595,00;   98,300;    3,127;36973,920
 596,00;  100,121;    0,218;36879,888
 597,00;   89,936;    6,610;37328,150
 598,00;   92,431;    0,515;37101,256
 599,00;   69,805;    1,860;37353,732
 600,00;   92,968;    5,298;37386,589
 601,00;   71,031;    2,013;37851,726
 602,00;   63,096;    0,092;36887,099
 603,00;   54,336;    0,589;37382,548
 604,00;   66,473;    3,939;36696,808
 605,00;   41,487;    4,699;36721,164
 606,00;   41,572;    1,771;36169,331
 607,00;   45,873;    4,815;36331,526
 608,00;   47,332;    7,694;35668,702
 609,00;   38,054;   -1,222;35820,190
 610,00;   43,986;    4,886;35288,211
 611,00;   71,457;    4,182;35331,259
 612,00;   86,274;   -0,146;34836,154
 613,00;   58,668;   -2,113;34671,862
 614,00;   45,527;    0,070;34298,335
 615,00;   34,117;    0,562;34331,296
 616,00;   40,236;    2,960;34028,695
 617,00;   24,799;    5,008;34144,864
 618,00;   30,639;    2,960;34200,385
 619,00;   13,490;    1,023;34374,462
 620,00;   24,423;    2,619;34782,222
 621,00;   27,268;    6,023;35152,758
 622,00;   10,134;    0,418;35441,372
 623,00;   24,369;    5,531;36021,990
 624,00;   18,637;    0,388;36494,263
 625,00;   22,580;    6,006;36262,749
 626,00;   17,561;    1,077;36732,193
 627,00;   14,715;    5,224;36698,499
 628,00;    4,149;    0,370;37373,709
 629,00;   28,536;    9,106;37579,336
 630,00;   25,071;   -0,291;38028,031
 631,00;   32,255;    3,879;38202,109
 632,00;   11,608;    5,007;38990,489
 633,00;   15,400;    0,551;39293,266
 634,00;    3,394;    0,404;40032,573
 635,00;    2,328;    3,114;40600,067
 636,00;   19,454;    5,063;41558,948
 637,00;   24,120;    2,150;41885,449
 638,00;    9,319;    2,875;42892,711
 639,00;   19,412;    2,905;43655,095
 640,00;    5,937;    3,107;44176,099
 641,00;    6,998;    4,516;44978,812
 642,00;   14,651;    6,812;45765,159
 643,00;   17,107;    7,026;46324,008
 644,00;   12,995;    5,651;46714,845
 645,00;   13,845;    0,864;47229,471
 646,00;    1,756;    0,634;47893,808
 647,00;   12,160;    2,331;48047,108
 648,00;    8,295;    3,025;48312,216
 649,00;    7,926;    4,851;48508,625
 650,00;   14,514;    0,434;48522,038
 651,00;    8,486;    3,312;49018,126
 652,00;   10,478;    2,491;48531,035
 653,00;   13,444;    0,635;48870,640
 654,00;   18,948;    0,401;48778,588
 655,00;    8,924;   -0,224;49845,531
 656,00;    0,261;   -0,043;55463,470
 657,00;    2,295;    0,637;56631,300
 658,00;   11,018;    8,040;49246,714
 659,00;    8,114;    2,697;49158,694
 660,00;   13,212;    2,498;48768,216
 661,00;    9,837;    4,144;48814,878
 662,00;    1,834;    5,911;48876,194
 663,00;    7,822;    3,329;48702,559
 664,00;   -5,130;    1,404;48892,247
 665,00;    9,288;    2,870;49183,260
 666,00;    9,794;    1,339;49689,752
 667,00;   15,037;    2,657;49188,088
 668,00;    8,470;    2,678;49895,399
 669,00;   15,966;    3,936;49712,233
 670,00;    2,060;    2,760;50304,498
 671,00;    5,517;    0,201;50279,333
 672,00;    6,845;    6,155;50457,989
 673,00;   15,588;    6,194;50480,294
 674,00;   16,248;    6,817;51278,567
 675,00;    1,664;    4,144;50519,404
 676,00;    7,526;    4,146;51341,541
 677,00;   18,831;    5,625;50461,849
 678,00;    0,264;    1,109;50993,719
 679,00;    8,401;    4,677;50473,464
 680,00;    7,848;    4,174;50803,425
 681,00;    6,021;    0,235;49968,370
 682,00;    5,900;    0,662;50400,417
 683,00;   10,988;    2,125;49930,562
 684,00;    2,732;    7,792;49692,460
 685,00;   -0,645;    3,155;49829,487
 686,00;    3,964;    5,728;49799,843
 687,00;    0,254;    2,544;50213,077
 688,00;   -2,199;    5,236;49460,159
 689,00;    0,198;    3,807;50051,820
 690,00;    1,900;   -2,713;49086,613
 691,00;   11,131;    5,767;50208,881
 692,00;   12,610;    8,461;49553,000
 693,00;    6,652;   -4,389;49815,210
 694,00;    2,274;   -4,831;49597,372
 695,00;    6,058;    1,650;49860,159
 696,00;    2,539;    0,391;49573,614
 697,00;    4,895;    3,312;50198,054
 698,00;   13,077;    5,182;49775,512
 699,00;    4,821;    1,389;49993,374
 700,00;    5,432;    5,814;50249,553
 701,00;    1,342;   -6,151;49671,834
 702,00;    5,604;   24,422;50178,262
 703,00;    6,438;    1,372;49507,536
 704,00;   11,167;    2,128;49640,561
 705,00;    6,102;    2,489;49545,116
 706,00;    8,548;    6,002;49614,926
 707,00;   13,433;    5,496;49508,597
 708,00;   16,149;    0,281;49185,260
 709,00;   10,988;    0,928;48762,067
 710,00;    4,088;    0,257;48784,377
 711,00;    9,607;    2,116;48442,609
 712,00;    6,451;    2,398;48379,045
 713,00;   10,122;    3,319;48124,926
 714,00;   -2,556;    3,323;47788,560
 715,00;   13,639;    2,670;47352,499
 716,00;    0,223;    1,001;47327,557
 717,00;   13,787;   -0,767;47075,032
 718,00;    9,777;    4,123;46231,429
 719,00;   -1,638;    4,611;46379,970
 720,00;    4,752;    5,204;45934,552
 721,00;    8,632;    5,484;46184,420
 722,00;   13,997;   -1,745;45333,735
 723,00;    1,651;   -4,147;45312,754
 724,00;    6,570;    1,669;45384,225
 725,00;   -2,823;    3,052;45169,462
 726,00;    9,394;   -1,233;45215,307
 727,00;   -8,128;    4,459;45402,216
 728,00;   -1,144;    3,743;45198,493
 729,00;    6,351;   -0,075;45036,927
 730,00;   10,983;    2,884;45281,836
 731,00;   10,425;    2,623;45243,883
 732,00;   -1,329;    9,943;45542,623
 733,00;   -4,359;   -1,006;45407,017
 734,00;    0,845;   -3,252;45594,318
 735,00;   -1,963;   -1,722;45662,838
 736,00;   16,308;    6,782;45648,534
 737,00;   -1,256;    7,536;45893,661
 738,00;    8,005;    8,522;45643,223
 739,00;    7,638;    7,767;45171,118
 740,00;    3,272;    2,215;45144,134
 741,00;    5,856;    3,690;45207,829
 742,00;   -2,331;    4,659;45004,046
 743,00;    8,314;    5,013;44853,548
 744,00;   -0,254;    1,821;44322,740
 745,00;    8,783;    7,429;44563,896
 746,00;    4,756;    1,159;44189,251
 747,00;    1,203;    8,505;43951,240
 748,00;   11,110;    7,888;43273,005
 749,00;    1,086;    2,018;43377,164
 750,00;   14,840;    3,416;43159,180
 751,00;   -1,998;    4,206;42515,226
 752,00;   -0,908;    5,343;42079,535
 753,00;    7,071;    5,282;41340,851
 754,00;    1,896;    2,805;41319,095
 755,00;   -1,379;    3,716;40276,796
 756,00;   -1,890;    6,277;40243,016
 757,00;   -5,507;    3,754;39576,232
 758,00;   10,066;    7,402;39704,427
 759,00;   -0,903;    7,962;39000,068
 760,00;    9,689;    0,977;38547,462
 761,00;    3,895;    4,183;38153,991
 762,00;    6,957;    3,050;37786,002
 763,00;   12,620;    5,642;37426,534
 764,00;   -0,821;    1,250;37181,135
 765,00;    5,062;   -0,754;37171,447
 766,00;    5,549;    5,452;36472,322
 767,00;    4,476;    4,444;36253,979
 768,00;   -8,062;    1,429;36376,863
 769,00;    9,481;   -1,182;36175,867
 770,00;    0,564;   -1,209;35848,783
 771,00;    3,827;   10,193;36034,098
 772,00;    2,737;    1,801;35733,893
 773,00;   -4,815;    6,087;35890,631
 774,00;   12,092;    5,606;35598,640
 775,00;    5,415;    1,026;35517,664
 776,00;    0,475;    6,113;35840,170
 777,00;    4,924;    3,884;35458,882
 778,00;   -9,525;    1,515;35524,560
 779,00;    6,035;    0,783;35476,436
 780,00;    6,328;    4,404;35814,053
 781,00;    3,242;    3,630;35835,393
 782,00;    4,002;   -0,328;36141,052
 783,00;   13,462;    0,491;36275,895
 784,00;    2,465;    7,288;36455,008
 785,00;    3,332;    1,558;36454,477
 786,00;    3,200;    4,119;36609,201
 787,00;    2,062;    3,715;36901,355
 788,00;    3,551;    4,785;36724,684
 789,00;    4,129;    1,940;36884,133
 790,00;    5,480;    2,064;36639,539
 791,00;   -0,046;    5,108;37085,536
 792,00;   -0,781;    6,224;36549,884
 793,00;    8,999;    6,098;36684,174
 794,00;    3,784;    5,712;36363,303
 795,00;   -4,817;   -0,945;36473,159
 796,00;   -4,703;    0,387;36404,456
 797,00;    2,269;    2,339;36042,595
 798,00;   10,424;   -3,596;35780,798
 799,00;    6,382;    4,808;35420,531
 800,00;   -5,632;    4,171;35284,582
 801,00;    4,222;    5,810;34440,825
 802,00;   -3,957;   -2,867;34443,663
 803,00;    5,741;    2,139;34307,753
 804,00;   -1,920;    2,001;34113,270
 805,00;    2,447;    2,988;33636,256
 806,00;   -0,533;   -0,298;33060,784
 807,00;    2,645;   -0,155;33033,672
 808,00;    5,759;    4,308;32711,975
