
Integration time [ms]:  10,000
Averaging Nr. [scans]: 30
Smoothing Nr. [pixels]: 0
Data measured with spectrometer [name]: 0901140U1
Wave   ;Sample   ;Dark     ;Reference;Scope
[nm]   ;[counts] ;[counts] ;[counts] 

 260,00;   Not Available
 261,00;   Not Available
 262,00;   Not Available
 263,00;   Not Available
 264,00;   Not Available
 265,00;   Not Available
 266,00;   Not Available
 267,00;   Not Available
 268,00;   Not Available
 269,00;   Not Available
 270,00;   Not Available
 271,00;   Not Available
 272,00;   Not Available
 273,00;   Not Available
 274,00;   Not Available
 275,00;   Not Available
 276,00;   Not Available
 277,00;   Not Available
 278,00;   Not Available
 279,00;   Not Available
 280,00;   Not Available
 281,00;   Not Available
 282,00;   Not Available
 283,00;   Not Available
 284,00;   Not Available
 285,00;   Not Available
 286,00;   Not Available
 287,00;   Not Available
 288,00;   Not Available
 289,00;   Not Available
 290,00;   Not Available
 291,00;   Not Available
 292,00;   Not Available
 293,00;   Not Available
 294,00;   Not Available
 295,00;   Not Available
 296,00;   Not Available
 297,00;   Not Available
 298,00;   Not Available
 299,00;   Not Available
 300,00;   Not Available
 301,00;   Not Available
 302,00;   Not Available
 303,00;   Not Available
 304,00;   Not Available
 305,00;   Not Available
 306,00;   Not Available
 307,00;   Not Available
 308,00;   Not Available
 309,00;   Not Available
 310,00;   Not Available
 311,00;   Not Available
 312,00;   Not Available
 313,00;   Not Available
 314,00;   Not Available
 315,00;   Not Available
 316,00;   Not Available
 317,00;   Not Available
 318,00;   Not Available
 319,00;   Not Available
 320,00;   Not Available
 321,00;   Not Available
 322,00;   Not Available
 323,00;   Not Available
 324,00;   Not Available
 325,00;   Not Available
 326,00;   Not Available
 327,00;   Not Available
 328,00;   Not Available
 329,00;   Not Available
 330,00;   Not Available
 331,00;   Not Available
 332,00;   Not Available
 333,00;   Not Available
 334,00;   Not Available
 335,00;   Not Available
 336,00;   Not Available
 337,00;   Not Available
 338,00;   Not Available
 339,00;   Not Available
 340,00;   Not Available
 341,00;   Not Available
 342,00;   Not Available
 343,00;   19,369;   -0,042; 5308,653
 344,00;   14,690;    3,248; 5435,737
 345,00;   14,069;   -0,687; 5586,839
 346,00;   17,301;   -1,316; 5899,019
 347,00;    8,320;    0,583; 6169,222
 348,00;   17,934;    4,643; 6334,159
 349,00;   22,529;    1,589; 6593,907
 350,00;   13,516;   -0,161; 6639,549
 351,00;   16,186;   -3,740; 6811,936
 352,00;   32,284;    4,863; 6805,536
 353,00;   13,931;    3,098; 6722,142
 354,00;   14,313;   11,456; 6660,788
 355,00;   12,265;   -0,317; 6859,957
 356,00;   23,579;    3,085; 7013,905
 357,00;   27,416;    1,773; 7062,159
 358,00;   27,287;   -1,850; 7139,153
 359,00;   10,193;    5,362; 7172,313
 360,00;   13,930;   -0,945; 7184,622
 361,00;   22,683;    4,640; 7271,278
 362,00;   19,688;    1,986; 7267,726
 363,00;   20,263;   -1,653; 7353,291
 364,00;   29,053;    3,267; 7347,788
 365,00;   20,919;   -2,526; 7376,368
 366,00;   19,143;    5,423; 7425,625
 367,00;   28,315;    1,077; 7691,767
 368,00;   21,461;   -0,660; 7901,408
 369,00;   12,334;   -2,295; 7832,170
 370,00;   16,994;    0,997; 8026,802
 371,00;   24,503;    0,108; 7804,205
 372,00;   18,952;   -0,688; 7872,014
 373,00;   14,271;    1,758; 7907,641
 374,00;   23,077;    0,283; 7977,145
 375,00;   26,386;    0,361; 7791,377
 376,00;   21,775;    1,476; 7795,045
 377,00;   22,590;    4,076; 7797,232
 378,00;   24,820;    4,427; 8369,540
 379,00;   18,525;    6,374; 8415,530
 380,00;   23,330;    4,474; 8362,086
 381,00;   19,464;    8,202; 8145,759
 382,00;   29,069;    8,451; 8040,339
 383,00;   22,653;    3,121; 7942,856
 384,00;   22,982;    2,617; 7877,278
 385,00;   11,855;    1,733; 7830,965
 386,00;   22,175;    3,665; 8065,170
 387,00;   21,722;    7,203; 8047,448
 388,00;   29,832;    4,292; 8521,671
 389,00;   20,956;    3,476; 8246,824
 390,00;   25,177;   -3,709; 8205,581
 391,00;   20,602;    0,076; 7955,041
 392,00;   19,807;    7,527; 8241,355
 393,00;   20,269;    1,829; 8365,932
 394,00;   29,109;    9,557; 7975,822
 395,00;   23,685;   -2,359; 8086,842
 396,00;   27,157;    5,159; 8008,916
 397,00;   19,654;    7,819; 8328,379
 398,00;   18,866;    0,294; 8563,734
 399,00;   10,633;    6,943; 8852,164
 400,00;   31,408;    5,366; 8319,759
 401,00;   23,600;    3,627; 7747,729
 402,00;   32,990;    1,281; 7571,799
 403,00;   27,618;    6,363; 7412,172
 404,00;   27,142;    5,728; 7669,434
 405,00;   30,131;    1,982; 7609,302
 406,00;   29,771;    0,823; 7620,879
 407,00;   20,922;    6,431; 7442,482
 408,00;   23,709;    2,157; 7481,070
 409,00;   30,631;   -0,802; 7398,022
 410,00;   25,270;    2,440; 7427,271
 411,00;   22,933;    3,476; 7405,718
 412,00;   27,692;    6,473; 7360,099
 413,00;   22,613;    2,681; 7486,115
 414,00;   28,279;    2,528; 7927,028
 415,00;   23,509;    5,374; 7686,086
 416,00;   19,674;    0,564; 7494,637
 417,00;   38,215;    1,319; 7471,791
 418,00;   34,589;    3,676; 7560,669
 419,00;   30,966;    4,244; 7755,964
 420,00;   43,407;    3,001; 8012,610
 421,00;   54,521;    6,532; 8465,100
 422,00;   50,540;    6,996; 9161,408
 423,00;   63,488;   -2,817; 9191,825
 424,00;   54,026;   -0,062; 9271,484
 425,00;   70,213;    5,149; 8852,789
 426,00;   76,936;    2,015; 8801,746
 427,00;   84,318;    2,890; 8997,735
 428,00;  114,505;    2,147; 9554,482
 429,00;  122,294;    2,279; 9685,289
 430,00;  139,635;    6,943;10238,988
 431,00;  163,717;    2,435;10520,281
 432,00;  198,898;    1,956; 9940,647
 433,00;  225,188;    0,383; 9535,601
 434,00;  265,432;    3,284; 9904,623
 435,00;  308,890;    1,111;10198,457
 436,00;  362,068;    3,710;10046,201
 437,00;  419,362;    2,990;10107,762
 438,00;  491,584;   -1,790;10187,177
 439,00;  544,216;    0,801; 9930,316
 440,00;  659,336;    4,995; 9843,439
 441,00;  773,539;    4,683;10147,359
 442,00;  841,060;    1,708; 9880,016
 443,00; 1002,671;    4,022; 9609,006
 444,00; 1124,579;    4,970; 8842,917
 445,00; 1334,045;    3,642; 8717,773
 446,00; 1524,697;    0,294; 9108,867
 447,00; 1693,189;    3,214; 9446,540
 448,00; 1988,564;    1,678;10103,260
 449,00; 2353,911;    4,529;10864,071
 450,00; 2758,804;    0,285;11428,142
 451,00; 3243,746;   -1,116;11859,538
 452,00; 3705,308;    1,252;11920,851
 453,00; 4604,021;    3,434;12365,451
 454,00; 5370,850;   -1,505;12348,034
 455,00; 6449,818;    4,028;12907,695
 456,00; 7304,763;    6,445;13043,195
 457,00; 8330,570;    3,011;13154,216
 458,00; 8781,725;    3,227;13466,441
 459,00; 9585,481;    1,747;13925,955
 460,00; 9913,373;    2,647;13797,224
 461,00;10407,147;    4,310;13717,760
 462,00;10744,916;    2,955;13603,510
 463,00;10363,216;    1,672;13405,965
 464,00;10557,294;    2,324;14202,312
 465,00;10206,502;    6,023;14951,125
 466,00; 9609,523;    2,250;15131,470
 467,00; 8995,516;   -3,115;14825,442
 468,00; 8451,993;    1,957;14679,288
 469,00; 7723,788;   -1,137;14474,279
 470,00; 7269,563;   -1,581;14051,918
 471,00; 6843,946;    1,502;13976,505
 472,00; 6767,608;    1,868;14369,674
 473,00; 6505,761;   -0,932;14937,848
 474,00; 6494,752;    1,334;15444,499
 475,00; 6306,327;   -1,157;15589,378
 476,00; 6312,717;    6,891;16010,549
 477,00; 6281,520;   -2,285;15962,462
 478,00; 6310,410;    3,104;16332,794
 479,00; 6219,092;    5,322;16686,910
 480,00; 5928,468;    0,553;17099,205
 481,00; 5749,851;    5,806;17484,386
 482,00; 5659,825;    3,372;17809,137
 483,00; 5337,101;    2,125;17966,667
 484,00; 5048,371;   -3,126;18556,171
 485,00; 4844,742;    1,445;22468,907
 486,00; 4575,153;    0,811;31549,406
 487,00; 4395,561;   -1,395;31339,104
 488,00; 4284,323;    6,628;20056,548
 489,00; 4172,608;    3,347;18925,110
 490,00; 4081,871;    5,383;19158,655
 491,00; 4129,742;    1,072;19219,379
 492,00; 4039,645;    0,479;19039,717
 493,00; 3998,290;    4,369;19073,019
 494,00; 4000,966;   -1,705;19310,317
 495,00; 3986,767;   -1,691;18904,344
 496,00; 3994,791;    5,041;19320,323
 497,00; 4021,823;    0,713;19521,951
 498,00; 4048,961;    6,657;18975,697
 499,00; 4035,758;    0,021;19205,823
 500,00; 3965,910;   -0,637;19409,174
 501,00; 3984,506;    6,167;19400,656
 502,00; 4074,770;    2,731;19825,945
 503,00; 4021,657;    3,819;19852,170
 504,00; 4212,366;    6,267;19545,973
 505,00; 4208,216;    0,363;19039,183
 506,00; 4266,864;    3,055;19003,583
 507,00; 4350,093;    0,945;18811,889
 508,00; 4478,125;   -1,997;18717,782
 509,00; 4464,704;   -1,410;18586,254
 510,00; 4698,486;    3,725;18561,556
 511,00; 4794,002;    2,462;18666,460
 512,00; 4943,120;    1,534;18630,675
 513,00; 5047,297;    9,685;18387,922
 514,00; 5132,659;    6,780;18242,142
 515,00; 5172,657;    5,326;17622,089
 516,00; 5336,352;    1,225;17554,524
 517,00; 5530,383;    1,162;17230,740
 518,00; 5584,821;   22,620;17035,085
 519,00; 5757,509;    4,323;16742,225
 520,00; 5918,676;    3,130;16657,887
 521,00; 6049,099;    8,944;16327,533
 522,00; 6240,489;    7,491;16240,052
 523,00; 6387,839;   -2,718;16176,654
 524,00; 6474,403;   -4,601;16443,395
 525,00; 6616,979;    4,013;16357,991
 526,00; 6767,045;    8,007;16480,530
 527,00; 6783,115;    6,683;16252,598
 528,00; 6908,350;    4,062;16653,785
 529,00; 6979,546;    4,644;16864,332
 530,00; 7213,526;   -0,177;17253,771
 531,00; 7205,176;   -0,185;17030,089
 532,00; 7279,534;    1,673;17490,817
 533,00; 7405,680;    0,578;18275,787
 534,00; 7390,604;    6,339;19191,745
 535,00; 7390,002;   -0,042;19583,412
 536,00; 7512,995;   -5,456;19801,991
 537,00; 7454,766;    3,493;19468,151
 538,00; 7699,396;    3,718;19791,057
 539,00; 7711,920;    7,833;19953,273
 540,00; 7720,900;    2,284;19774,906
 541,00; 7774,320;    4,635;19327,634
 542,00; 7656,223;    0,439;19376,597
 543,00; 7773,725;    1,270;19258,235
 544,00; 7662,414;   -0,154;19421,154
 545,00; 7765,964;    6,065;19569,175
 546,00; 7765,534;   -1,895;19720,234
 547,00; 7898,711;    0,648;19926,118
 548,00; 7855,394;    0,086;20885,498
 549,00; 7843,329;   -0,038;21048,594
 550,00; 7774,932;    4,478;20441,229
 551,00; 7838,823;    0,368;20291,522
 552,00; 7708,892;   -0,605;20750,020
 553,00; 7635,227;    6,332;21136,333
 554,00; 7834,134;    3,933;21175,515
 555,00; 7700,102;    2,375;21441,113
 556,00; 7785,358;    0,634;22267,749
 557,00; 7748,419;    1,533;22532,690
 558,00; 7682,560;    4,612;23078,812
 559,00; 7532,885;    3,711;23491,301
 560,00; 7633,647;   -1,764;24464,614
 561,00; 7606,819;    6,008;25434,026
 562,00; 7546,404;    2,368;25900,670
 563,00; 7537,894;   -1,849;26285,369
 564,00; 7505,278;   11,938;26912,675
 565,00; 7433,304;    5,430;27477,788
 566,00; 7468,550;    2,382;27874,917
 567,00; 7509,043;    3,512;28666,529
 568,00; 7419,364;    2,958;29770,636
 569,00; 7333,849;   -0,522;31102,097
 570,00; 7341,700;    0,188;32978,253
 571,00; 7164,591;    2,910;34369,629
 572,00; 7274,656;    3,662;35240,696
 573,00; 7261,383;   -1,779;35774,339
 574,00; 7221,008;    2,880;36874,327
 575,00; 7161,355;    0,981;37501,588
 576,00; 7047,860;    7,072;37331,900
 577,00; 7076,468;    6,284;37778,065
 578,00; 6923,823;   -2,775;38695,355
 579,00; 6891,382;    6,153;38248,724
 580,00; 6743,820;    4,260;37071,396
 581,00; 6568,151;    5,770;38578,649
 582,00; 6534,552;    2,590;39207,020
 583,00; 6374,164;    5,177;37470,977
 584,00; 6126,135;    5,213;35636,726
 585,00; 6127,063;    2,963;36323,937
 586,00; 6073,355;    0,225;36611,662
 587,00; 6138,933;    2,959;36328,456
 588,00; 6058,212;    7,420;36086,156
 589,00; 5965,836;    5,812;35896,728
 590,00; 5992,660;    5,054;35650,694
 591,00; 5832,885;    8,888;35815,884
 592,00; 5841,554;    6,022;36089,818
 593,00; 5710,435;   -0,248;36859,857
 594,00; 5625,354;   -1,801;36792,130
 595,00; 5538,900;    3,127;36973,920
 596,00; 5508,671;    0,218;36879,888
 597,00; 5567,572;    6,610;37328,150
 598,00; 5332,979;    0,515;37101,256
 599,00; 5286,871;    1,860;37353,732
 600,00; 5215,943;    5,298;37386,589
 601,00; 5222,775;    2,013;37851,726
 602,00; 4880,543;    0,092;36887,099
 603,00; 4837,965;    0,589;37382,548
 604,00; 4776,219;    3,939;36696,808
 605,00; 4625,100;    4,699;36721,164
 606,00; 4555,175;    1,771;36169,331
 607,00; 4467,640;    4,815;36331,526
 608,00; 4323,021;    7,694;35668,702
 609,00; 4222,729;   -1,222;35820,190
 610,00; 4044,320;    4,886;35288,211
 611,00; 3995,380;    4,182;35331,259
 612,00; 3926,936;   -0,146;34836,154
 613,00; 3782,320;   -2,113;34671,862
 614,00; 3637,181;    0,070;34298,335
 615,00; 3571,719;    0,562;34331,296
 616,00; 3412,781;    2,960;34028,695
 617,00; 3359,545;    5,008;34144,864
 618,00; 3356,200;    2,960;34200,385
 619,00; 3323,201;    1,023;34374,462
 620,00; 3268,218;    2,619;34782,222
 621,00; 3319,032;    6,023;35152,758
 622,00; 3272,964;    0,418;35441,372
 623,00; 3317,928;    5,531;36021,990
 624,00; 3250,271;    0,388;36494,263
 625,00; 3147,941;    6,006;36262,749
 626,00; 3174,390;    1,077;36732,193
 627,00; 3063,883;    5,224;36698,499
 628,00; 3011,793;    0,370;37373,709
 629,00; 3001,178;    9,106;37579,336
 630,00; 2950,288;   -0,291;38028,031
 631,00; 2857,682;    3,879;38202,109
 632,00; 2880,215;    5,007;38990,489
 633,00; 2781,171;    0,551;39293,266
 634,00; 2755,225;    0,404;40032,573
 635,00; 2745,807;    3,114;40600,067
 636,00; 2671,051;    5,063;41558,948
 637,00; 2662,018;    2,150;41885,449
 638,00; 2665,785;    2,875;42892,711
 639,00; 2677,016;    2,905;43655,095
 640,00; 2581,038;    3,107;44176,099
 641,00; 2604,226;    4,516;44978,812
 642,00; 2565,699;    6,812;45765,159
 643,00; 2511,925;    7,026;46324,008
 644,00; 2506,130;    5,651;46714,845
 645,00; 2413,746;    0,864;47229,471
 646,00; 2352,366;    0,634;47893,808
 647,00; 2302,982;    2,331;48047,108
 648,00; 2299,463;    3,025;48312,216
 649,00; 2225,513;    4,851;48508,625
 650,00; 2188,895;    0,434;48522,038
 651,00; 2149,382;    3,312;49018,126
 652,00; 2094,913;    2,491;48531,035
 653,00; 2059,282;    0,635;48870,640
 654,00; 2008,741;    0,401;48778,588
 655,00; 1989,491;   -0,224;49845,531
 656,00; 1941,610;   -0,043;55463,470
 657,00; 1945,916;    0,637;56631,300
 658,00; 1836,045;    8,040;49246,714
 659,00; 1792,814;    2,697;49158,694
 660,00; 1713,068;    2,498;48768,216
 661,00; 1685,022;    4,144;48814,878
 662,00; 1665,398;    5,911;48876,194
 663,00; 1608,409;    3,329;48702,559
 664,00; 1528,482;    1,404;48892,247
 665,00; 1506,260;    2,870;49183,260
 666,00; 1496,618;    1,339;49689,752
 667,00; 1425,681;    2,657;49188,088
 668,00; 1385,716;    2,678;49895,399
 669,00; 1355,717;    3,936;49712,233
 670,00; 1330,708;    2,760;50304,498
 671,00; 1273,309;    0,201;50279,333
 672,00; 1265,135;    6,155;50457,989
 673,00; 1221,725;    6,194;50480,294
 674,00; 1225,258;    6,817;51278,567
 675,00; 1131,144;    4,144;50519,404
 676,00; 1136,805;    4,146;51341,541
 677,00; 1089,777;    5,625;50461,849
 678,00; 1061,688;    1,109;50993,719
 679,00; 1017,463;    4,677;50473,464
 680,00; 1032,545;    4,174;50803,425
 681,00;  958,415;    0,235;49968,370
 682,00;  956,680;    0,662;50400,417
 683,00;  887,736;    2,125;49930,562
 684,00;  865,201;    7,792;49692,460
 685,00;  850,182;    3,155;49829,487
 686,00;  818,859;    5,728;49799,843
 687,00;  823,721;    2,544;50213,077
 688,00;  775,309;    5,236;49460,159
 689,00;  753,903;    3,807;50051,820
 690,00;  722,194;   -2,713;49086,613
 691,00;  743,959;    5,767;50208,881
 692,00;  714,466;    8,461;49553,000
 693,00;  675,318;   -4,389;49815,210
 694,00;  658,612;   -4,831;49597,372
 695,00;  645,081;    1,650;49860,159
 696,00;  612,413;    0,391;49573,614
 697,00;  610,209;    3,312;50198,054
 698,00;  587,856;    5,182;49775,512
 699,00;  575,358;    1,389;49993,374
 700,00;  552,479;    5,814;50249,553
 701,00;  547,037;   -6,151;49671,834
 702,00;  532,450;   24,422;50178,262
 703,00;  512,225;    1,372;49507,536
 704,00;  475,514;    2,128;49640,561
 705,00;  480,148;    2,489;49545,116
 706,00;  466,993;    6,002;49614,926
 707,00;  451,903;    5,496;49508,597
 708,00;  435,150;    0,281;49185,260
 709,00;  431,341;    0,928;48762,067
 710,00;  427,244;    0,257;48784,377
 711,00;  396,739;    2,116;48442,609
 712,00;  388,240;    2,398;48379,045
 713,00;  378,443;    3,319;48124,926
 714,00;  359,477;    3,323;47788,560
 715,00;  361,111;    2,670;47352,499
 716,00;  342,896;    1,001;47327,557
 717,00;  339,277;   -0,767;47075,032
 718,00;  326,186;    4,123;46231,429
 719,00;  309,874;    4,611;46379,970
 720,00;  310,668;    5,204;45934,552
 721,00;  280,888;    5,484;46184,420
 722,00;  286,645;   -1,745;45333,735
 723,00;  279,892;   -4,147;45312,754
 724,00;  263,800;    1,669;45384,225
 725,00;  258,965;    3,052;45169,462
 726,00;  254,499;   -1,233;45215,307
 727,00;  239,804;    4,459;45402,216
 728,00;  241,447;    3,743;45198,493
 729,00;  226,805;   -0,075;45036,927
 730,00;  214,641;    2,884;45281,836
 731,00;  216,374;    2,623;45243,883
 732,00;  193,436;    9,943;45542,623
 733,00;  199,841;   -1,006;45407,017
 734,00;  196,438;   -3,252;45594,318
 735,00;  190,655;   -1,722;45662,838
 736,00;  190,227;    6,782;45648,534
 737,00;  174,907;    7,536;45893,661
 738,00;  159,392;    8,522;45643,223
 739,00;  167,792;    7,767;45171,118
 740,00;  163,610;    2,215;45144,134
 741,00;  155,194;    3,690;45207,829
 742,00;  149,048;    4,659;45004,046
 743,00;  135,620;    5,013;44853,548
 744,00;  131,672;    1,821;44322,740
 745,00;  128,924;    7,429;44563,896
 746,00;  135,189;    1,159;44189,251
 747,00;  136,601;    8,505;43951,240
 748,00;  105,430;    7,888;43273,005
 749,00;  109,602;    2,018;43377,164
 750,00;   96,695;    3,416;43159,180
 751,00;  102,325;    4,206;42515,226
 752,00;   99,019;    5,343;42079,535
 753,00;  104,115;    5,282;41340,851
 754,00;   94,241;    2,805;41319,095
 755,00;   89,355;    3,716;40276,796
 756,00;   87,841;    6,277;40243,016
 757,00;   74,110;    3,754;39576,232
 758,00;   80,335;    7,402;39704,427
 759,00;   73,005;    7,962;39000,068
 760,00;   76,649;    0,977;38547,462
 761,00;   70,012;    4,183;38153,991
 762,00;   59,253;    3,050;37786,002
 763,00;   56,685;    5,642;37426,534
 764,00;   65,212;    1,250;37181,135
 765,00;   64,066;   -0,754;37171,447
 766,00;   56,581;    5,452;36472,322
 767,00;   49,089;    4,444;36253,979
 768,00;   58,286;    1,429;36376,863
 769,00;   54,315;   -1,182;36175,867
 770,00;   55,158;   -1,209;35848,783
 771,00;   39,595;   10,193;36034,098
 772,00;   47,957;    1,801;35733,893
 773,00;   50,156;    6,087;35890,631
 774,00;   56,431;    5,606;35598,640
 775,00;   44,380;    1,026;35517,664
 776,00;   46,060;    6,113;35840,170
 777,00;   46,656;    3,884;35458,882
 778,00;   37,974;    1,515;35524,560
 779,00;   35,014;    0,783;35476,436
 780,00;   40,735;    4,404;35814,053
 781,00;   48,463;    3,630;35835,393
 782,00;   32,849;   -0,328;36141,052
 783,00;   31,374;    0,491;36275,895
 784,00;   36,826;    7,288;36455,008
 785,00;   31,684;    1,558;36454,477
 786,00;   30,449;    4,119;36609,201
 787,00;   32,037;    3,715;36901,355
 788,00;   37,820;    4,785;36724,684
 789,00;   23,263;    1,940;36884,133
 790,00;   34,567;    2,064;36639,539
 791,00;   35,574;    5,108;37085,536
 792,00;   33,921;    6,224;36549,884
 793,00;   29,754;    6,098;36684,174
 794,00;   20,531;    5,712;36363,303
 795,00;   22,622;   -0,945;36473,159
 796,00;   22,187;    0,387;36404,456
 797,00;   19,785;    2,339;36042,595
 798,00;   13,356;   -3,596;35780,798
 799,00;   23,665;    4,808;35420,531
 800,00;   12,924;    4,171;35284,582
 801,00;   22,101;    5,810;34440,825
 802,00;   21,359;   -2,867;34443,663
 803,00;   21,870;    2,139;34307,753
 804,00;   20,174;    2,001;34113,270
 805,00;   24,029;    2,988;33636,256
 806,00;   15,826;   -0,298;33060,784
 807,00;   19,497;   -0,155;33033,672
 808,00;   17,894;    4,308;32711,975
