
Integration time [ms]:   2,000
Averaging Nr. [scans]: 30
Smoothing Nr. [pixels]: 0
Data measured with spectrometer [name]: 0901140U1
Wave   ;Sample   ;Dark     ;Reference;Scope
[nm]   ;[counts] ;[counts] ;[counts] 

 260,00;   Not Available
 261,00;   Not Available
 262,00;   Not Available
 263,00;   Not Available
 264,00;   Not Available
 265,00;   Not Available
 266,00;   Not Available
 267,00;   Not Available
 268,00;   Not Available
 269,00;   Not Available
 270,00;   Not Available
 271,00;   Not Available
 272,00;   Not Available
 273,00;   Not Available
 274,00;   Not Available
 275,00;   Not Available
 276,00;   Not Available
 277,00;   Not Available
 278,00;   Not Available
 279,00;   Not Available
 280,00;   Not Available
 281,00;   Not Available
 282,00;   Not Available
 283,00;   Not Available
 284,00;   Not Available
 285,00;   Not Available
 286,00;   Not Available
 287,00;   Not Available
 288,00;   Not Available
 289,00;   Not Available
 290,00;   Not Available
 291,00;   Not Available
 292,00;   Not Available
 293,00;   Not Available
 294,00;   Not Available
 295,00;   Not Available
 296,00;   Not Available
 297,00;   Not Available
 298,00;   Not Available
 299,00;   Not Available
 300,00;   Not Available
 301,00;   Not Available
 302,00;   Not Available
 303,00;   Not Available
 304,00;   Not Available
 305,00;   Not Available
 306,00;   Not Available
 307,00;   Not Available
 308,00;   Not Available
 309,00;   Not Available
 310,00;   Not Available
 311,00;   Not Available
 312,00;   Not Available
 313,00;   Not Available
 314,00;   Not Available
 315,00;   Not Available
 316,00;   Not Available
 317,00;   Not Available
 318,00;   Not Available
 319,00;   Not Available
 320,00;   Not Available
 321,00;   Not Available
 322,00;   Not Available
 323,00;   Not Available
 324,00;   Not Available
 325,00;   Not Available
 326,00;   Not Available
 327,00;   Not Available
 328,00;   Not Available
 329,00;   Not Available
 330,00;   Not Available
 331,00;   Not Available
 332,00;   Not Available
 333,00;   Not Available
 334,00;   Not Available
 335,00;   Not Available
 336,00;   Not Available
 337,00;   Not Available
 338,00;   Not Available
 339,00;   Not Available
 340,00;   Not Available
 341,00;   Not Available
 342,00;   Not Available
 343,00;   48,089;   -0,042; 5308,653
 344,00;   47,762;    3,248; 5435,737
 345,00;   45,870;   -0,687; 5586,839
 346,00;   45,199;   -1,316; 5899,019
 347,00;   44,807;    0,583; 6169,222
 348,00;   51,161;    4,643; 6334,159
 349,00;   48,600;    1,589; 6593,907
 350,00;   44,090;   -0,161; 6639,549
 351,00;   50,774;   -3,740; 6811,936
 352,00;   47,814;    4,863; 6805,536
 353,00;   61,702;    3,098; 6722,142
 354,00;   51,682;   11,456; 6660,788
 355,00;   49,455;   -0,317; 6859,957
 356,00;   47,238;    3,085; 7013,905
 357,00;   52,778;    1,773; 7062,159
 358,00;   51,761;   -1,850; 7139,153
 359,00;   54,294;    5,362; 7172,313
 360,00;   57,073;   -0,945; 7184,622
 361,00;   65,196;    4,640; 7271,278
 362,00;   56,290;    1,986; 7267,726
 363,00;   64,421;   -1,653; 7353,291
 364,00;   64,330;    3,267; 7347,788
 365,00;   67,163;   -2,526; 7376,368
 366,00;   68,113;    5,423; 7425,625
 367,00;   71,998;    1,077; 7691,767
 368,00;   72,461;   -0,660; 7901,408
 369,00;   70,147;   -2,295; 7832,170
 370,00;   70,834;    0,997; 8026,802
 371,00;   62,930;    0,108; 7804,205
 372,00;   80,142;   -0,688; 7872,014
 373,00;   71,895;    1,758; 7907,641
 374,00;   78,503;    0,283; 7977,145
 375,00;   75,433;    0,361; 7791,377
 376,00;   82,640;    1,476; 7795,045
 377,00;   81,904;    4,076; 7797,232
 378,00;   87,619;    4,427; 8369,540
 379,00;   82,804;    6,374; 8415,530
 380,00;   90,274;    4,474; 8362,086
 381,00;   92,187;    8,202; 8145,759
 382,00;   93,315;    8,451; 8040,339
 383,00;   95,470;    3,121; 7942,856
 384,00;  102,066;    2,617; 7877,278
 385,00;   98,753;    1,733; 7830,965
 386,00;  105,439;    3,665; 8065,170
 387,00;  108,151;    7,203; 8047,448
 388,00;  106,130;    4,292; 8521,671
 389,00;  117,849;    3,476; 8246,824
 390,00;  115,192;   -3,709; 8205,581
 391,00;  126,589;    0,076; 7955,041
 392,00;  120,031;    7,527; 8241,355
 393,00;  122,392;    1,829; 8365,932
 394,00;  118,842;    9,557; 7975,822
 395,00;  130,563;   -2,359; 8086,842
 396,00;  137,673;    5,159; 8008,916
 397,00;  140,928;    7,819; 8328,379
 398,00;  138,596;    0,294; 8563,734
 399,00;  130,847;    6,943; 8852,164
 400,00;  147,302;    5,366; 8319,759
 401,00;  144,665;    3,627; 7747,729
 402,00;  161,743;    1,281; 7571,799
 403,00;  160,604;    6,363; 7412,172
 404,00;  161,315;    5,728; 7669,434
 405,00;  162,802;    1,982; 7609,302
 406,00;  162,989;    0,823; 7620,879
 407,00;  169,305;    6,431; 7442,482
 408,00;  183,412;    2,157; 7481,070
 409,00;  180,421;   -0,802; 7398,022
 410,00;  186,951;    2,440; 7427,271
 411,00;  196,527;    3,476; 7405,718
 412,00;  185,053;    6,473; 7360,099
 413,00;  204,410;    2,681; 7486,115
 414,00;  217,661;    2,528; 7927,028
 415,00;  217,276;    5,374; 7686,086
 416,00;  215,447;    0,564; 7494,637
 417,00;  209,292;    1,319; 7471,791
 418,00;  217,728;    3,676; 7560,669
 419,00;  207,882;    4,244; 7755,964
 420,00;  235,980;    3,001; 8012,610
 421,00;  220,775;    6,532; 8465,100
 422,00;  239,335;    6,996; 9161,408
 423,00;  242,182;   -2,817; 9191,825
 424,00;  247,996;   -0,062; 9271,484
 425,00;  247,855;    5,149; 8852,789
 426,00;  258,884;    2,015; 8801,746
 427,00;  264,076;    2,890; 8997,735
 428,00;  301,048;    2,147; 9554,482
 429,00;  282,412;    2,279; 9685,289
 430,00;  290,346;    6,943;10238,988
 431,00;  287,923;    2,435;10520,281
 432,00;  306,075;    1,956; 9940,647
 433,00;  306,512;    0,383; 9535,601
 434,00;  307,263;    3,284; 9904,623
 435,00;  331,562;    1,111;10198,457
 436,00;  329,344;    3,710;10046,201
 437,00;  353,077;    2,990;10107,762
 438,00;  361,520;   -1,790;10187,177
 439,00;  354,143;    0,801; 9930,316
 440,00;  358,702;    4,995; 9843,439
 441,00;  381,931;    4,683;10147,359
 442,00;  375,474;    1,708; 9880,016
 443,00;  410,617;    4,022; 9609,006
 444,00;  387,726;    4,970; 8842,917
 445,00;  411,344;    3,642; 8717,773
 446,00;  427,003;    0,294; 9108,867
 447,00;  428,017;    3,214; 9446,540
 448,00;  438,974;    1,678;10103,260
 449,00;  419,178;    4,529;10864,071
 450,00;  418,137;    0,285;11428,142
 451,00;  453,468;   -1,116;11859,538
 452,00;  437,911;    1,252;11920,851
 453,00;  489,644;    3,434;12365,451
 454,00;  495,645;   -1,505;12348,034
 455,00;  523,127;    4,028;12907,695
 456,00;  523,668;    6,445;13043,195
 457,00;  558,267;    3,011;13154,216
 458,00;  541,654;    3,227;13466,441
 459,00;  545,863;    1,747;13925,955
 460,00;  533,378;    2,647;13797,224
 461,00;  560,123;    4,310;13717,760
 462,00;  587,947;    2,955;13603,510
 463,00;  599,073;    1,672;13405,965
 464,00;  624,061;    2,324;14202,312
 465,00;  639,788;    6,023;14951,125
 466,00;  640,579;    2,250;15131,470
 467,00;  664,378;   -3,115;14825,442
 468,00;  725,226;    1,957;14679,288
 469,00;  729,621;   -1,137;14474,279
 470,00;  757,107;   -1,581;14051,918
 471,00;  754,738;    1,502;13976,505
 472,00;  828,781;    1,868;14369,674
 473,00;  874,777;   -0,932;14937,848
 474,00;  892,352;    1,334;15444,499
 475,00;  924,112;   -1,157;15589,378
 476,00;  960,223;    6,891;16010,549
 477,00; 1019,722;   -2,285;15962,462
 478,00; 1079,460;    3,104;16332,794
 479,00; 1110,509;    5,322;16686,910
 480,00; 1184,816;    0,553;17099,205
 481,00; 1187,637;    5,806;17484,386
 482,00; 1268,299;    3,372;17809,137
 483,00; 1335,163;    2,125;17966,667
 484,00; 1353,199;   -3,126;18556,171
 485,00; 1466,849;    1,445;22468,907
 486,00; 1540,144;    0,811;31549,406
 487,00; 1512,947;   -1,395;31339,104
 488,00; 1642,299;    6,628;20056,548
 489,00; 1652,619;    3,347;18925,110
 490,00; 1650,155;    5,383;19158,655
 491,00; 1787,341;    1,072;19219,379
 492,00; 1738,979;    0,479;19039,717
 493,00; 1766,766;    4,369;19073,019
 494,00; 1845,643;   -1,705;19310,317
 495,00; 1909,000;   -1,691;18904,344
 496,00; 1867,851;    5,041;19320,323
 497,00; 1973,906;    0,713;19521,951
 498,00; 1999,536;    6,657;18975,697
 499,00; 1986,509;    0,021;19205,823
 500,00; 2033,048;   -0,637;19409,174
 501,00; 2100,479;    6,167;19400,656
 502,00; 2110,652;    2,731;19825,945
 503,00; 2141,582;    3,819;19852,170
 504,00; 2271,188;    6,267;19545,973
 505,00; 2225,629;    0,363;19039,183
 506,00; 2214,003;    3,055;19003,583
 507,00; 2254,947;    0,945;18811,889
 508,00; 2323,967;   -1,997;18717,782
 509,00; 2323,585;   -1,410;18586,254
 510,00; 2356,074;    3,725;18561,556
 511,00; 2289,671;    2,462;18666,460
 512,00; 2348,200;    1,534;18630,675
 513,00; 2429,108;    9,685;18387,922
 514,00; 2425,618;    6,780;18242,142
 515,00; 2373,891;    5,326;17622,089
 516,00; 2514,911;    1,225;17554,524
 517,00; 2593,777;    1,162;17230,740
 518,00; 2684,443;   22,620;17035,085
 519,00; 2671,152;    4,323;16742,225
 520,00; 2677,378;    3,130;16657,887
 521,00; 2730,123;    8,944;16327,533
 522,00; 2719,434;    7,491;16240,052
 523,00; 2814,625;   -2,718;16176,654
 524,00; 2808,630;   -4,601;16443,395
 525,00; 2828,554;    4,013;16357,991
 526,00; 2986,769;    8,007;16480,530
 527,00; 2922,294;    6,683;16252,598
 528,00; 3101,578;    4,062;16653,785
 529,00; 3157,348;    4,644;16864,332
 530,00; 3043,795;   -0,177;17253,771
 531,00; 3114,950;   -0,185;17030,089
 532,00; 3173,907;    1,673;17490,817
 533,00; 3163,810;    0,578;18275,787
 534,00; 3190,005;    6,339;19191,745
 535,00; 3256,168;   -0,042;19583,412
 536,00; 3478,688;   -5,456;19801,991
 537,00; 3461,978;    3,493;19468,151
 538,00; 3429,139;    3,718;19791,057
 539,00; 3350,699;    7,833;19953,273
 540,00; 3460,120;    2,284;19774,906
 541,00; 3539,275;    4,635;19327,634
 542,00; 3733,334;    0,439;19376,597
 543,00; 3548,856;    1,270;19258,235
 544,00; 3722,180;   -0,154;19421,154
 545,00; 3560,701;    6,065;19569,175
 546,00; 3846,869;   -1,895;19720,234
 547,00; 3739,347;    0,648;19926,118
 548,00; 3850,275;    0,086;20885,498
 549,00; 3992,332;   -0,038;21048,594
 550,00; 3968,241;    4,478;20441,229
 551,00; 3814,930;    0,368;20291,522
 552,00; 3911,853;   -0,605;20750,020
 553,00; 3844,452;    6,332;21136,333
 554,00; 3815,820;    3,933;21175,515
 555,00; 3942,057;    2,375;21441,113
 556,00; 3897,777;    0,634;22267,749
 557,00; 3994,700;    1,533;22532,690
 558,00; 4063,826;    4,612;23078,812
 559,00; 4028,985;    3,711;23491,301
 560,00; 4222,001;   -1,764;24464,614
 561,00; 4100,951;    6,008;25434,026
 562,00; 4077,437;    2,368;25900,670
 563,00; 3958,960;   -1,849;26285,369
 564,00; 4174,572;   11,938;26912,675
 565,00; 4383,396;    5,430;27477,788
 566,00; 4400,293;    2,382;27874,917
 567,00; 4396,183;    3,512;28666,529
 568,00; 4392,332;    2,958;29770,636
 569,00; 4438,450;   -0,522;31102,097
 570,00; 4521,684;    0,188;32978,253
 571,00; 4669,812;    2,910;34369,629
 572,00; 4602,212;    3,662;35240,696
 573,00; 4590,766;   -1,779;35774,339
 574,00; 4516,733;    2,880;36874,327
 575,00; 4659,994;    0,981;37501,588
 576,00; 4610,006;    7,072;37331,900
 577,00; 4528,241;    6,284;37778,065
 578,00; 4341,425;   -2,775;38695,355
 579,00; 4394,628;    6,153;38248,724
 580,00; 4411,335;    4,260;37071,396
 581,00; 4170,978;    5,770;38578,649
 582,00; 4206,852;    2,590;39207,020
 583,00; 4272,825;    5,177;37470,977
 584,00; 4386,723;    5,213;35636,726
 585,00; 4362,985;    2,963;36323,937
 586,00; 4368,569;    0,225;36611,662
 587,00; 4552,171;    2,959;36328,456
 588,00; 4446,864;    7,420;36086,156
 589,00; 4641,107;    5,812;35896,728
 590,00; 4516,289;    5,054;35650,694
 591,00; 4616,043;    8,888;35815,884
 592,00; 4598,619;    6,022;36089,818
 593,00; 4717,030;   -0,248;36859,857
 594,00; 4657,199;   -1,801;36792,130
 595,00; 4672,416;    3,127;36973,920
 596,00; 4543,879;    0,218;36879,888
 597,00; 4592,454;    6,610;37328,150
 598,00; 4781,157;    0,515;37101,256
 599,00; 4738,308;    1,860;37353,732
 600,00; 4764,833;    5,298;37386,589
 601,00; 4914,413;    2,013;37851,726
 602,00; 4866,481;    0,092;36887,099
 603,00; 4949,280;    0,589;37382,548
 604,00; 4816,371;    3,939;36696,808
 605,00; 4979,229;    4,699;36721,164
 606,00; 4856,293;    1,771;36169,331
 607,00; 4852,127;    4,815;36331,526
 608,00; 4576,022;    7,694;35668,702
 609,00; 4544,766;   -1,222;35820,190
 610,00; 4547,248;    4,886;35288,211
 611,00; 4734,216;    4,182;35331,259
 612,00; 4505,494;   -0,146;34836,154
 613,00; 4505,534;   -2,113;34671,862
 614,00; 4441,917;    0,070;34298,335
 615,00; 4442,184;    0,562;34331,296
 616,00; 4217,229;    2,960;34028,695
 617,00; 4244,112;    5,008;34144,864
 618,00; 4472,224;    2,960;34200,385
 619,00; 4282,749;    1,023;34374,462
 620,00; 4324,655;    2,619;34782,222
 621,00; 4353,307;    6,023;35152,758
 622,00; 4512,811;    0,418;35441,372
 623,00; 4507,286;    5,531;36021,990
 624,00; 4557,294;    0,388;36494,263
 625,00; 4509,854;    6,006;36262,749
 626,00; 4570,759;    1,077;36732,193
 627,00; 4487,960;    5,224;36698,499
 628,00; 4883,398;    0,370;37373,709
 629,00; 5040,359;    9,106;37579,336
 630,00; 5161,258;   -0,291;38028,031
 631,00; 5208,569;    3,879;38202,109
 632,00; 5094,229;    5,007;38990,489
 633,00; 5125,472;    0,551;39293,266
 634,00; 5323,310;    0,404;40032,573
 635,00; 5574,443;    3,114;40600,067
 636,00; 5579,496;    5,063;41558,948
 637,00; 5380,608;    2,150;41885,449
 638,00; 5608,585;    2,875;42892,711
 639,00; 5631,210;    2,905;43655,095
 640,00; 5998,462;    3,107;44176,099
 641,00; 5734,566;    4,516;44978,812
 642,00; 6048,097;    6,812;45765,159
 643,00; 6026,502;    7,026;46324,008
 644,00; 5881,103;    5,651;46714,845
 645,00; 5897,764;    0,864;47229,471
 646,00; 6183,031;    0,634;47893,808
 647,00; 6119,928;    2,331;48047,108
 648,00; 6396,458;    3,025;48312,216
 649,00; 6317,465;    4,851;48508,625
 650,00; 6517,254;    0,434;48522,038
 651,00; 6454,770;    3,312;49018,126
 652,00; 6342,363;    2,491;48531,035
 653,00; 6372,749;    0,635;48870,640
 654,00; 6374,181;    0,401;48778,588
 655,00; 6468,733;   -0,224;49845,531
 656,00; 6096,681;   -0,043;55463,470
 657,00; 6204,776;    0,637;56631,300
 658,00; 6469,223;    8,040;49246,714
 659,00; 6639,071;    2,697;49158,694
 660,00; 6562,073;    2,498;48768,216
 661,00; 6702,167;    4,144;48814,878
 662,00; 6345,357;    5,911;48876,194
 663,00; 6535,322;    3,329;48702,559
 664,00; 6632,653;    1,404;48892,247
 665,00; 6451,295;    2,870;49183,260
 666,00; 6390,446;    1,339;49689,752
 667,00; 6653,290;    2,657;49188,088
 668,00; 6984,598;    2,678;49895,399
 669,00; 6613,889;    3,936;49712,233
 670,00; 7022,165;    2,760;50304,498
 671,00; 6619,678;    0,201;50279,333
 672,00; 6626,477;    6,155;50457,989
 673,00; 6400,062;    6,194;50480,294
 674,00; 6811,617;    6,817;51278,567
 675,00; 6654,172;    4,144;50519,404
 676,00; 6563,120;    4,146;51341,541
 677,00; 6459,908;    5,625;50461,849
 678,00; 6590,662;    1,109;50993,719
 679,00; 6240,482;    4,677;50473,464
 680,00; 6800,541;    4,174;50803,425
 681,00; 6272,113;    0,235;49968,370
 682,00; 6350,380;    0,662;50400,417
 683,00; 6550,248;    2,125;49930,562
 684,00; 6302,019;    7,792;49692,460
 685,00; 6373,874;    3,155;49829,487
 686,00; 6137,886;    5,728;49799,843
 687,00; 6347,084;    2,544;50213,077
 688,00; 6022,149;    5,236;49460,159
 689,00; 6338,526;    3,807;50051,820
 690,00; 6274,995;   -2,713;49086,613
 691,00; 6650,603;    5,767;50208,881
 692,00; 6337,050;    8,461;49553,000
 693,00; 6504,682;   -4,389;49815,210
 694,00; 6373,910;   -4,831;49597,372
 695,00; 6150,414;    1,650;49860,159
 696,00; 6059,912;    0,391;49573,614
 697,00; 6391,601;    3,312;50198,054
 698,00; 6146,573;    5,182;49775,512
 699,00; 6264,755;    1,389;49993,374
 700,00; 6158,260;    5,814;50249,553
 701,00; 6336,547;   -6,151;49671,834
 702,00; 6242,995;   24,422;50178,262
 703,00; 6570,210;    1,372;49507,536
 704,00; 6462,211;    2,128;49640,561
 705,00; 6172,854;    2,489;49545,116
 706,00; 6346,347;    6,002;49614,926
 707,00; 6210,103;    5,496;49508,597
 708,00; 6085,583;    0,281;49185,260
 709,00; 6077,109;    0,928;48762,067
 710,00; 5948,829;    0,257;48784,377
 711,00; 6508,147;    2,116;48442,609
 712,00; 6317,541;    2,398;48379,045
 713,00; 6212,615;    3,319;48124,926
 714,00; 6215,569;    3,323;47788,560
 715,00; 6041,321;    2,670;47352,499
 716,00; 6334,985;    1,001;47327,557
 717,00; 6503,742;   -0,767;47075,032
 718,00; 6644,209;    4,123;46231,429
 719,00; 6257,380;    4,611;46379,970
 720,00; 6186,708;    5,204;45934,552
 721,00; 6210,614;    5,484;46184,420
 722,00; 5925,690;   -1,745;45333,735
 723,00; 6335,254;   -4,147;45312,754
 724,00; 6315,723;    1,669;45384,225
 725,00; 6128,726;    3,052;45169,462
 726,00; 6000,805;   -1,233;45215,307
 727,00; 6026,385;    4,459;45402,216
 728,00; 5885,353;    3,743;45198,493
 729,00; 5697,869;   -0,075;45036,927
 730,00; 5878,564;    2,884;45281,836
 731,00; 5763,176;    2,623;45243,883
 732,00; 6079,451;    9,943;45542,623
 733,00; 5894,420;   -1,006;45407,017
 734,00; 5658,603;   -3,252;45594,318
 735,00; 5567,859;   -1,722;45662,838
 736,00; 6201,348;    6,782;45648,534
 737,00; 5620,745;    7,536;45893,661
 738,00; 5668,749;    8,522;45643,223
 739,00; 5912,110;    7,767;45171,118
 740,00; 5761,031;    2,215;45144,134
 741,00; 5419,983;    3,690;45207,829
 742,00; 5921,710;    4,659;45004,046
 743,00; 5572,104;    5,013;44853,548
 744,00; 5613,379;    1,821;44322,740
 745,00; 5478,338;    7,429;44563,896
 746,00; 5348,352;    1,159;44189,251
 747,00; 5416,340;    8,505;43951,240
 748,00; 5293,739;    7,888;43273,005
 749,00; 5484,063;    2,018;43377,164
 750,00; 5415,049;    3,416;43159,180
 751,00; 5327,598;    4,206;42515,226
 752,00; 5287,768;    5,343;42079,535
 753,00; 5152,623;    5,282;41340,851
 754,00; 4953,616;    2,805;41319,095
 755,00; 4953,201;    3,716;40276,796
 756,00; 5006,356;    6,277;40243,016
 757,00; 4563,989;    3,754;39576,232
 758,00; 4773,093;    7,402;39704,427
 759,00; 4629,010;    7,962;39000,068
 760,00; 4819,900;    0,977;38547,462
 761,00; 4485,680;    4,183;38153,991
 762,00; 4833,670;    3,050;37786,002
 763,00; 4689,583;    5,642;37426,534
 764,00; 4711,368;    1,250;37181,135
 765,00; 4624,410;   -0,754;37171,447
 766,00; 4626,874;    5,452;36472,322
 767,00; 4601,720;    4,444;36253,979
 768,00; 4493,347;    1,429;36376,863
 769,00; 4414,716;   -1,182;36175,867
 770,00; 4321,943;   -1,209;35848,783
 771,00; 4744,703;   10,193;36034,098
 772,00; 4421,282;    1,801;35733,893
 773,00; 4585,355;    6,087;35890,631
 774,00; 4644,993;    5,606;35598,640
 775,00; 4232,041;    1,026;35517,664
 776,00; 4258,168;    6,113;35840,170
 777,00; 4015,847;    3,884;35458,882
 778,00; 4461,796;    1,515;35524,560
 779,00; 4536,982;    0,783;35476,436
 780,00; 4374,018;    4,404;35814,053
 781,00; 4320,292;    3,630;35835,393
 782,00; 4365,230;   -0,328;36141,052
 783,00; 4032,093;    0,491;36275,895
 784,00; 4376,767;    7,288;36455,008
 785,00; 4161,420;    1,558;36454,477
 786,00; 4150,962;    4,119;36609,201
 787,00; 4373,228;    3,715;36901,355
 788,00; 4556,739;    4,785;36724,684
 789,00; 4238,952;    1,940;36884,133
 790,00; 4099,463;    2,064;36639,539
 791,00; 4264,782;    5,108;37085,536
 792,00; 4366,220;    6,224;36549,884
 793,00; 4202,220;    6,098;36684,174
 794,00; 4328,035;    5,712;36363,303
 795,00; 4353,335;   -0,945;36473,159
 796,00; 4589,154;    0,387;36404,456
 797,00; 4265,659;    2,339;36042,595
 798,00; 4279,205;   -3,596;35780,798
 799,00; 4562,792;    4,808;35420,531
 800,00; 4181,740;    4,171;35284,582
 801,00; 3989,313;    5,810;34440,825
 802,00; 4080,791;   -2,867;34443,663
 803,00; 4133,372;    2,139;34307,753
 804,00; 4066,507;    2,001;34113,270
 805,00; 3850,765;    2,988;33636,256
 806,00; 3835,535;   -0,298;33060,784
 807,00; 3754,638;   -0,155;33033,672
 808,00; 3944,465;    4,308;32711,975
