
Integration time [ms]:   2,000
Averaging Nr. [scans]: 30
Smoothing Nr. [pixels]: 0
Data measured with spectrometer [name]: 0901140U1
Wave   ;Sample   ;Dark     ;Reference;Scope
[nm]   ;[counts] ;[counts] ;[counts] 

 260,00;   Not Available
 261,00;   Not Available
 262,00;   Not Available
 263,00;   Not Available
 264,00;   Not Available
 265,00;   Not Available
 266,00;   Not Available
 267,00;   Not Available
 268,00;   Not Available
 269,00;   Not Available
 270,00;   Not Available
 271,00;   Not Available
 272,00;   Not Available
 273,00;   Not Available
 274,00;   Not Available
 275,00;   Not Available
 276,00;   Not Available
 277,00;   Not Available
 278,00;   Not Available
 279,00;   Not Available
 280,00;   Not Available
 281,00;   Not Available
 282,00;   Not Available
 283,00;   Not Available
 284,00;   Not Available
 285,00;   Not Available
 286,00;   Not Available
 287,00;   Not Available
 288,00;   Not Available
 289,00;   Not Available
 290,00;   Not Available
 291,00;   Not Available
 292,00;   Not Available
 293,00;   Not Available
 294,00;   Not Available
 295,00;   Not Available
 296,00;   Not Available
 297,00;   Not Available
 298,00;   Not Available
 299,00;   Not Available
 300,00;   Not Available
 301,00;   Not Available
 302,00;   Not Available
 303,00;   Not Available
 304,00;   Not Available
 305,00;   Not Available
 306,00;   Not Available
 307,00;   Not Available
 308,00;   Not Available
 309,00;   Not Available
 310,00;   Not Available
 311,00;   Not Available
 312,00;   Not Available
 313,00;   Not Available
 314,00;   Not Available
 315,00;   Not Available
 316,00;   Not Available
 317,00;   Not Available
 318,00;   Not Available
 319,00;   Not Available
 320,00;   Not Available
 321,00;   Not Available
 322,00;   Not Available
 323,00;   Not Available
 324,00;   Not Available
 325,00;   Not Available
 326,00;   Not Available
 327,00;   Not Available
 328,00;   Not Available
 329,00;   Not Available
 330,00;   Not Available
 331,00;   Not Available
 332,00;   Not Available
 333,00;   Not Available
 334,00;   Not Available
 335,00;   Not Available
 336,00;   Not Available
 337,00;   Not Available
 338,00;   Not Available
 339,00;   Not Available
 340,00;   Not Available
 341,00;   Not Available
 342,00;   Not Available
 343,00;   42,864;   -0,042; 5308,653
 344,00;   45,866;    3,248; 5435,737
 345,00;   42,446;   -0,687; 5586,839
 346,00;   48,601;   -1,316; 5899,019
 347,00;   50,220;    0,583; 6169,222
 348,00;   48,446;    4,643; 6334,159
 349,00;   52,318;    1,589; 6593,907
 350,00;   40,769;   -0,161; 6639,549
 351,00;   50,016;   -3,740; 6811,936
 352,00;   40,440;    4,863; 6805,536
 353,00;   53,443;    3,098; 6722,142
 354,00;   48,930;   11,456; 6660,788
 355,00;   47,932;   -0,317; 6859,957
 356,00;   46,234;    3,085; 7013,905
 357,00;   44,169;    1,773; 7062,159
 358,00;   51,257;   -1,850; 7139,153
 359,00;   46,367;    5,362; 7172,313
 360,00;   56,817;   -0,945; 7184,622
 361,00;   55,135;    4,640; 7271,278
 362,00;   59,199;    1,986; 7267,726
 363,00;   41,447;   -1,653; 7353,291
 364,00;   57,262;    3,267; 7347,788
 365,00;   59,514;   -2,526; 7376,368
 366,00;   55,700;    5,423; 7425,625
 367,00;   54,990;    1,077; 7691,767
 368,00;   54,561;   -0,660; 7901,408
 369,00;   56,438;   -2,295; 7832,170
 370,00;   70,848;    0,997; 8026,802
 371,00;   41,684;    0,108; 7804,205
 372,00;   48,422;   -0,688; 7872,014
 373,00;   57,067;    1,758; 7907,641
 374,00;   63,064;    0,283; 7977,145
 375,00;   53,002;    0,361; 7791,377
 376,00;   57,639;    1,476; 7795,045
 377,00;   50,190;    4,076; 7797,232
 378,00;   54,139;    4,427; 8369,540
 379,00;   63,378;    6,374; 8415,530
 380,00;   57,728;    4,474; 8362,086
 381,00;   61,227;    8,202; 8145,759
 382,00;   55,964;    8,451; 8040,339
 383,00;   51,240;    3,121; 7942,856
 384,00;   55,072;    2,617; 7877,278
 385,00;   66,494;    1,733; 7830,965
 386,00;   47,422;    3,665; 8065,170
 387,00;   67,236;    7,203; 8047,448
 388,00;   55,455;    4,292; 8521,671
 389,00;   52,544;    3,476; 8246,824
 390,00;   45,836;   -3,709; 8205,581
 391,00;   52,664;    0,076; 7955,041
 392,00;   55,764;    7,527; 8241,355
 393,00;   54,132;    1,829; 8365,932
 394,00;   61,132;    9,557; 7975,822
 395,00;   54,356;   -2,359; 8086,842
 396,00;   54,442;    5,159; 8008,916
 397,00;   49,041;    7,819; 8328,379
 398,00;   63,919;    0,294; 8563,734
 399,00;   54,322;    6,943; 8852,164
 400,00;   52,212;    5,366; 8319,759
 401,00;   60,953;    3,627; 7747,729
 402,00;   52,269;    1,281; 7571,799
 403,00;   52,070;    6,363; 7412,172
 404,00;   54,007;    5,728; 7669,434
 405,00;   51,778;    1,982; 7609,302
 406,00;   61,091;    0,823; 7620,879
 407,00;   58,008;    6,431; 7442,482
 408,00;   55,606;    2,157; 7481,070
 409,00;   58,654;   -0,802; 7398,022
 410,00;   60,719;    2,440; 7427,271
 411,00;   57,751;    3,476; 7405,718
 412,00;   61,577;    6,473; 7360,099
 413,00;   66,773;    2,681; 7486,115
 414,00;   55,392;    2,528; 7927,028
 415,00;   68,061;    5,374; 7686,086
 416,00;   65,358;    0,564; 7494,637
 417,00;   58,366;    1,319; 7471,791
 418,00;   63,526;    3,676; 7560,669
 419,00;   58,763;    4,244; 7755,964
 420,00;   69,213;    3,001; 8012,610
 421,00;   54,304;    6,532; 8465,100
 422,00;   60,498;    6,996; 9161,408
 423,00;   56,571;   -2,817; 9191,825
 424,00;   53,843;   -0,062; 9271,484
 425,00;   60,331;    5,149; 8852,789
 426,00;   65,799;    2,015; 8801,746
 427,00;   49,804;    2,890; 8997,735
 428,00;   62,663;    2,147; 9554,482
 429,00;   59,403;    2,279; 9685,289
 430,00;   57,440;    6,943;10238,988
 431,00;   50,122;    2,435;10520,281
 432,00;   63,851;    1,956; 9940,647
 433,00;   67,431;    0,383; 9535,601
 434,00;   59,662;    3,284; 9904,623
 435,00;   59,798;    1,111;10198,457
 436,00;   61,983;    3,710;10046,201
 437,00;   62,698;    2,990;10107,762
 438,00;   63,847;   -1,790;10187,177
 439,00;   74,534;    0,801; 9930,316
 440,00;   63,368;    4,995; 9843,439
 441,00;   59,456;    4,683;10147,359
 442,00;   57,415;    1,708; 9880,016
 443,00;   63,979;    4,022; 9609,006
 444,00;   54,778;    4,970; 8842,917
 445,00;   62,926;    3,642; 8717,773
 446,00;   60,507;    0,294; 9108,867
 447,00;   57,180;    3,214; 9446,540
 448,00;   61,119;    1,678;10103,260
 449,00;   55,267;    4,529;10864,071
 450,00;   58,343;    0,285;11428,142
 451,00;   62,983;   -1,116;11859,538
 452,00;   60,713;    1,252;11920,851
 453,00;   69,635;    3,434;12365,451
 454,00;   66,027;   -1,505;12348,034
 455,00;   57,836;    4,028;12907,695
 456,00;   60,564;    6,445;13043,195
 457,00;   61,575;    3,011;13154,216
 458,00;   56,256;    3,227;13466,441
 459,00;   71,179;    1,747;13925,955
 460,00;   76,003;    2,647;13797,224
 461,00;   68,732;    4,310;13717,760
 462,00;   57,562;    2,955;13603,510
 463,00;   68,700;    1,672;13405,965
 464,00;   62,989;    2,324;14202,312
 465,00;   62,793;    6,023;14951,125
 466,00;   69,866;    2,250;15131,470
 467,00;   64,990;   -3,115;14825,442
 468,00;   69,215;    1,957;14679,288
 469,00;   67,312;   -1,137;14474,279
 470,00;   63,676;   -1,581;14051,918
 471,00;   81,685;    1,502;13976,505
 472,00;   77,726;    1,868;14369,674
 473,00;   76,079;   -0,932;14937,848
 474,00;   81,320;    1,334;15444,499
 475,00;   92,380;   -1,157;15589,378
 476,00;   96,328;    6,891;16010,549
 477,00;   92,741;   -2,285;15962,462
 478,00;  118,646;    3,104;16332,794
 479,00;  118,649;    5,322;16686,910
 480,00;  127,939;    0,553;17099,205
 481,00;  147,670;    5,806;17484,386
 482,00;  176,251;    3,372;17809,137
 483,00;  214,000;    2,125;17966,667
 484,00;  233,675;   -3,126;18556,171
 485,00;  283,484;    1,445;22468,907
 486,00;  326,236;    0,811;31549,406
 487,00;  360,559;   -1,395;31339,104
 488,00;  435,183;    6,628;20056,548
 489,00;  492,613;    3,347;18925,110
 490,00;  543,317;    5,383;19158,655
 491,00;  641,839;    1,072;19219,379
 492,00;  715,991;    0,479;19039,717
 493,00;  790,446;    4,369;19073,019
 494,00;  888,853;   -1,705;19310,317
 495,00;  974,744;   -1,691;18904,344
 496,00; 1025,041;    5,041;19320,323
 497,00; 1131,254;    0,713;19521,951
 498,00; 1208,702;    6,657;18975,697
 499,00; 1248,167;    0,021;19205,823
 500,00; 1311,603;   -0,637;19409,174
 501,00; 1417,940;    6,167;19400,656
 502,00; 1480,390;    2,731;19825,945
 503,00; 1523,854;    3,819;19852,170
 504,00; 1669,328;    6,267;19545,973
 505,00; 1659,547;    0,363;19039,183
 506,00; 1704,093;    3,055;19003,583
 507,00; 1785,207;    0,945;18811,889
 508,00; 1872,900;   -1,997;18717,782
 509,00; 1910,664;   -1,410;18586,254
 510,00; 2013,317;    3,725;18561,556
 511,00; 2059,407;    2,462;18666,460
 512,00; 2071,632;    1,534;18630,675
 513,00; 2202,246;    9,685;18387,922
 514,00; 2330,764;    6,780;18242,142
 515,00; 2336,953;    5,326;17622,089
 516,00; 2445,561;    1,225;17554,524
 517,00; 2573,198;    1,162;17230,740
 518,00; 2619,366;   22,620;17035,085
 519,00; 2734,019;    4,323;16742,225
 520,00; 2756,461;    3,130;16657,887
 521,00; 2960,501;    8,944;16327,533
 522,00; 2941,287;    7,491;16240,052
 523,00; 2984,072;   -2,718;16176,654
 524,00; 3020,616;   -4,601;16443,395
 525,00; 3083,334;    4,013;16357,991
 526,00; 3304,130;    8,007;16480,530
 527,00; 3205,806;    6,683;16252,598
 528,00; 3508,090;    4,062;16653,785
 529,00; 3537,748;    4,644;16864,332
 530,00; 3488,747;   -0,177;17253,771
 531,00; 3640,546;   -0,185;17030,089
 532,00; 3790,491;    1,673;17490,817
 533,00; 3725,521;    0,578;18275,787
 534,00; 3871,930;    6,339;19191,745
 535,00; 3903,142;   -0,042;19583,412
 536,00; 4231,565;   -5,456;19801,991
 537,00; 4196,470;    3,493;19468,151
 538,00; 4176,105;    3,718;19791,057
 539,00; 4255,129;    7,833;19953,273
 540,00; 4394,190;    2,284;19774,906
 541,00; 4419,190;    4,635;19327,634
 542,00; 4657,746;    0,439;19376,597
 543,00; 4379,197;    1,270;19258,235
 544,00; 4738,432;   -0,154;19421,154
 545,00; 4573,310;    6,065;19569,175
 546,00; 4883,275;   -1,895;19720,234
 547,00; 4662,292;    0,648;19926,118
 548,00; 4885,068;    0,086;20885,498
 549,00; 5035,854;   -0,038;21048,594
 550,00; 5016,362;    4,478;20441,229
 551,00; 4941,102;    0,368;20291,522
 552,00; 5038,593;   -0,605;20750,020
 553,00; 4873,209;    6,332;21136,333
 554,00; 4899,842;    3,933;21175,515
 555,00; 5081,852;    2,375;21441,113
 556,00; 5022,486;    0,634;22267,749
 557,00; 5164,899;    1,533;22532,690
 558,00; 5282,543;    4,612;23078,812
 559,00; 5234,313;    3,711;23491,301
 560,00; 5514,979;   -1,764;24464,614
 561,00; 5387,438;    6,008;25434,026
 562,00; 5351,236;    2,368;25900,670
 563,00; 5303,644;   -1,849;26285,369
 564,00; 5476,419;   11,938;26912,675
 565,00; 5670,422;    5,430;27477,788
 566,00; 5714,050;    2,382;27874,917
 567,00; 5813,297;    3,512;28666,529
 568,00; 5629,688;    2,958;29770,636
 569,00; 5760,906;   -0,522;31102,097
 570,00; 5974,466;    0,188;32978,253
 571,00; 6088,135;    2,910;34369,629
 572,00; 5946,153;    3,662;35240,696
 573,00; 6067,619;   -1,779;35774,339
 574,00; 6013,018;    2,880;36874,327
 575,00; 6170,995;    0,981;37501,588
 576,00; 6035,739;    7,072;37331,900
 577,00; 5961,534;    6,284;37778,065
 578,00; 5823,328;   -2,775;38695,355
 579,00; 5979,900;    6,153;38248,724
 580,00; 5920,384;    4,260;37071,396
 581,00; 5544,630;    5,770;38578,649
 582,00; 5654,388;    2,590;39207,020
 583,00; 5805,719;    5,177;37470,977
 584,00; 5866,188;    5,213;35636,726
 585,00; 5765,809;    2,963;36323,937
 586,00; 5749,200;    0,225;36611,662
 587,00; 6007,438;    2,959;36328,456
 588,00; 5993,269;    7,420;36086,156
 589,00; 6224,625;    5,812;35896,728
 590,00; 6059,561;    5,054;35650,694
 591,00; 6190,707;    8,888;35815,884
 592,00; 6212,769;    6,022;36089,818
 593,00; 6411,050;   -0,248;36859,857
 594,00; 6246,536;   -1,801;36792,130
 595,00; 6325,788;    3,127;36973,920
 596,00; 6109,682;    0,218;36879,888
 597,00; 6258,291;    6,610;37328,150
 598,00; 6413,204;    0,515;37101,256
 599,00; 6229,831;    1,860;37353,732
 600,00; 6263,074;    5,298;37386,589
 601,00; 6460,064;    2,013;37851,726
 602,00; 6469,483;    0,092;36887,099
 603,00; 6327,030;    0,589;37382,548
 604,00; 6269,042;    3,939;36696,808
 605,00; 6493,088;    4,699;36721,164
 606,00; 6272,649;    1,771;36169,331
 607,00; 6308,017;    4,815;36331,526
 608,00; 5947,426;    7,694;35668,702
 609,00; 5957,204;   -1,222;35820,190
 610,00; 5915,966;    4,886;35288,211
 611,00; 6114,120;    4,182;35331,259
 612,00; 5930,076;   -0,146;34836,154
 613,00; 5944,512;   -2,113;34671,862
 614,00; 5878,365;    0,070;34298,335
 615,00; 5941,580;    0,562;34331,296
 616,00; 5785,333;    2,960;34028,695
 617,00; 5699,319;    5,008;34144,864
 618,00; 6078,975;    2,960;34200,385
 619,00; 5727,232;    1,023;34374,462
 620,00; 5800,069;    2,619;34782,222
 621,00; 5805,045;    6,023;35152,758
 622,00; 6075,535;    0,418;35441,372
 623,00; 6131,655;    5,531;36021,990
 624,00; 6005,183;    0,388;36494,263
 625,00; 6226,427;    6,006;36262,749
 626,00; 6181,523;    1,077;36732,193
 627,00; 6118,335;    5,224;36698,499
 628,00; 6694,995;    0,370;37373,709
 629,00; 6717,336;    9,106;37579,336
 630,00; 6714,858;   -0,291;38028,031
 631,00; 6848,140;    3,879;38202,109
 632,00; 6722,750;    5,007;38990,489
 633,00; 6648,516;    0,551;39293,266
 634,00; 6804,098;    0,404;40032,573
 635,00; 7198,855;    3,114;40600,067
 636,00; 7111,511;    5,063;41558,948
 637,00; 7140,713;    2,150;41885,449
 638,00; 7258,190;    2,875;42892,711
 639,00; 7078,719;    2,905;43655,095
 640,00; 7571,069;    3,107;44176,099
 641,00; 7316,659;    4,516;44978,812
 642,00; 7797,338;    6,812;45765,159
 643,00; 7693,214;    7,026;46324,008
 644,00; 7648,317;    5,651;46714,845
 645,00; 7712,743;    0,864;47229,471
 646,00; 8153,632;    0,634;47893,808
 647,00; 7945,174;    2,331;48047,108
 648,00; 8396,598;    3,025;48312,216
 649,00; 8177,334;    4,851;48508,625
 650,00; 8283,554;    0,434;48522,038
 651,00; 8692,006;    3,312;49018,126
 652,00; 8256,663;    2,491;48531,035
 653,00; 8542,221;    0,635;48870,640
 654,00; 8557,737;    0,401;48778,588
 655,00; 8638,447;   -0,224;49845,531
 656,00; 8074,799;   -0,043;55463,470
 657,00; 8457,166;    0,637;56631,300
 658,00; 8825,662;    8,040;49246,714
 659,00; 8959,131;    2,697;49158,694
 660,00; 8683,216;    2,498;48768,216
 661,00; 9141,713;    4,144;48814,878
 662,00; 8453,151;    5,911;48876,194
 663,00; 8692,143;    3,329;48702,559
 664,00; 8939,571;    1,404;48892,247
 665,00; 8612,844;    2,870;49183,260
 666,00; 8430,472;    1,339;49689,752
 667,00; 8546,331;    2,657;49188,088
 668,00; 9117,195;    2,678;49895,399
 669,00; 8463,855;    3,936;49712,233
 670,00; 9046,443;    2,760;50304,498
 671,00; 8493,952;    0,201;50279,333
 672,00; 8508,865;    6,155;50457,989
 673,00; 8286,620;    6,194;50480,294
 674,00; 8749,688;    6,817;51278,567
 675,00; 8771,128;    4,144;50519,404
 676,00; 8359,956;    4,146;51341,541
 677,00; 8315,672;    5,625;50461,849
 678,00; 8445,041;    1,109;50993,719
 679,00; 8012,297;    4,677;50473,464
 680,00; 8507,625;    4,174;50803,425
 681,00; 8066,936;    0,235;49968,370
 682,00; 8028,582;    0,662;50400,417
 683,00; 8217,792;    2,125;49930,562
 684,00; 8137,605;    7,792;49692,460
 685,00; 8217,813;    3,155;49829,487
 686,00; 7939,687;    5,728;49799,843
 687,00; 8034,723;    2,544;50213,077
 688,00; 7906,161;    5,236;49460,159
 689,00; 8291,492;    3,807;50051,820
 690,00; 8064,857;   -2,713;49086,613
 691,00; 8563,522;    5,767;50208,881
 692,00; 8279,196;    8,461;49553,000
 693,00; 8720,786;   -4,389;49815,210
 694,00; 8569,655;   -4,831;49597,372
 695,00; 8279,291;    1,650;49860,159
 696,00; 8191,554;    0,391;49573,614
 697,00; 8495,420;    3,312;50198,054
 698,00; 8450,644;    5,182;49775,512
 699,00; 8679,441;    1,389;49993,374
 700,00; 8199,222;    5,814;50249,553
 701,00; 8492,958;   -6,151;49671,834
 702,00; 8543,626;   24,422;50178,262
 703,00; 8783,925;    1,372;49507,536
 704,00; 8894,116;    2,128;49640,561
 705,00; 8453,782;    2,489;49545,116
 706,00; 8516,212;    6,002;49614,926
 707,00; 8328,414;    5,496;49508,597
 708,00; 8234,462;    0,281;49185,260
 709,00; 8210,494;    0,928;48762,067
 710,00; 8015,354;    0,257;48784,377
 711,00; 8792,076;    2,116;48442,609
 712,00; 8354,338;    2,398;48379,045
 713,00; 8342,114;    3,319;48124,926
 714,00; 8265,524;    3,323;47788,560
 715,00; 8134,717;    2,670;47352,499
 716,00; 8384,383;    1,001;47327,557
 717,00; 8542,392;   -0,767;47075,032
 718,00; 8472,742;    4,123;46231,429
 719,00; 8080,619;    4,611;46379,970
 720,00; 8049,261;    5,204;45934,552
 721,00; 7932,514;    5,484;46184,420
 722,00; 7626,837;   -1,745;45333,735
 723,00; 8015,744;   -4,147;45312,754
 724,00; 8011,888;    1,669;45384,225
 725,00; 7842,855;    3,052;45169,462
 726,00; 7657,229;   -1,233;45215,307
 727,00; 7756,656;    4,459;45402,216
 728,00; 7305,189;    3,743;45198,493
 729,00; 7413,422;   -0,075;45036,927
 730,00; 7461,468;    2,884;45281,836
 731,00; 7125,006;    2,623;45243,883
 732,00; 7487,426;    9,943;45542,623
 733,00; 7465,704;   -1,006;45407,017
 734,00; 7200,707;   -3,252;45594,318
 735,00; 7187,961;   -1,722;45662,838
 736,00; 8021,850;    6,782;45648,534
 737,00; 7275,971;    7,536;45893,661
 738,00; 7426,473;    8,522;45643,223
 739,00; 7746,416;    7,767;45171,118
 740,00; 7385,362;    2,215;45144,134
 741,00; 7017,859;    3,690;45207,829
 742,00; 7743,331;    4,659;45004,046
 743,00; 7447,897;    5,013;44853,548
 744,00; 7285,695;    1,821;44322,740
 745,00; 7186,283;    7,429;44563,896
 746,00; 7027,401;    1,159;44189,251
 747,00; 7254,865;    8,505;43951,240
 748,00; 7185,479;    7,888;43273,005
 749,00; 7352,048;    2,018;43377,164
 750,00; 7299,056;    3,416;43159,180
 751,00; 7045,746;    4,206;42515,226
 752,00; 7190,770;    5,343;42079,535
 753,00; 6751,497;    5,282;41340,851
 754,00; 6547,393;    2,805;41319,095
 755,00; 6530,445;    3,716;40276,796
 756,00; 6714,441;    6,277;40243,016
 757,00; 6066,376;    3,754;39576,232
 758,00; 6305,870;    7,402;39704,427
 759,00; 6128,258;    7,962;39000,068
 760,00; 6513,311;    0,977;38547,462
 761,00; 6155,885;    4,183;38153,991
 762,00; 6244,108;    3,050;37786,002
 763,00; 5996,790;    5,642;37426,534
 764,00; 6128,445;    1,250;37181,135
 765,00; 6067,972;   -0,754;37171,447
 766,00; 5928,007;    5,452;36472,322
 767,00; 5963,003;    4,444;36253,979
 768,00; 5810,280;    1,429;36376,863
 769,00; 5814,143;   -1,182;36175,867
 770,00; 5592,373;   -1,209;35848,783
 771,00; 5937,058;   10,193;36034,098
 772,00; 5808,981;    1,801;35733,893
 773,00; 5890,198;    6,087;35890,631
 774,00; 5799,351;    5,606;35598,640
 775,00; 5412,384;    1,026;35517,664
 776,00; 5513,944;    6,113;35840,170
 777,00; 5148,175;    3,884;35458,882
 778,00; 5686,402;    1,515;35524,560
 779,00; 5793,343;    0,783;35476,436
 780,00; 5492,312;    4,404;35814,053
 781,00; 5479,942;    3,630;35835,393
 782,00; 5535,820;   -0,328;36141,052
 783,00; 5130,439;    0,491;36275,895
 784,00; 5647,114;    7,288;36455,008
 785,00; 5273,288;    1,558;36454,477
 786,00; 5273,108;    4,119;36609,201
 787,00; 5506,867;    3,715;36901,355
 788,00; 5832,793;    4,785;36724,684
 789,00; 5302,377;    1,940;36884,133
 790,00; 5252,216;    2,064;36639,539
 791,00; 5411,561;    5,108;37085,536
 792,00; 5524,840;    6,224;36549,884
 793,00; 5423,285;    6,098;36684,174
 794,00; 5579,807;    5,712;36363,303
 795,00; 5544,742;   -0,945;36473,159
 796,00; 5717,630;    0,387;36404,456
 797,00; 5501,555;    2,339;36042,595
 798,00; 5575,890;   -3,596;35780,798
 799,00; 5856,253;    4,808;35420,531
 800,00; 5499,259;    4,171;35284,582
 801,00; 5252,500;    5,810;34440,825
 802,00; 5234,983;   -2,867;34443,663
 803,00; 5415,871;    2,139;34307,753
 804,00; 5131,945;    2,001;34113,270
 805,00; 5088,608;    2,988;33636,256
 806,00; 5000,235;   -0,298;33060,784
 807,00; 4983,360;   -0,155;33033,672
 808,00; 5118,325;    4,308;32711,975
