
Integration time [ms]:  10,000
Averaging Nr. [scans]: 30
Smoothing Nr. [pixels]: 0
Data measured with spectrometer [name]: 0901140U1
Wave   ;Sample   ;Dark     ;Reference;Scope
[nm]   ;[counts] ;[counts] ;[counts] 

 260,00;   Not Available
 261,00;   Not Available
 262,00;   Not Available
 263,00;   Not Available
 264,00;   Not Available
 265,00;   Not Available
 266,00;   Not Available
 267,00;   Not Available
 268,00;   Not Available
 269,00;   Not Available
 270,00;   Not Available
 271,00;   Not Available
 272,00;   Not Available
 273,00;   Not Available
 274,00;   Not Available
 275,00;   Not Available
 276,00;   Not Available
 277,00;   Not Available
 278,00;   Not Available
 279,00;   Not Available
 280,00;   Not Available
 281,00;   Not Available
 282,00;   Not Available
 283,00;   Not Available
 284,00;   Not Available
 285,00;   Not Available
 286,00;   Not Available
 287,00;   Not Available
 288,00;   Not Available
 289,00;   Not Available
 290,00;   Not Available
 291,00;   Not Available
 292,00;   Not Available
 293,00;   Not Available
 294,00;   Not Available
 295,00;   Not Available
 296,00;   Not Available
 297,00;   Not Available
 298,00;   Not Available
 299,00;   Not Available
 300,00;   Not Available
 301,00;   Not Available
 302,00;   Not Available
 303,00;   Not Available
 304,00;   Not Available
 305,00;   Not Available
 306,00;   Not Available
 307,00;   Not Available
 308,00;   Not Available
 309,00;   Not Available
 310,00;   Not Available
 311,00;   Not Available
 312,00;   Not Available
 313,00;   Not Available
 314,00;   Not Available
 315,00;   Not Available
 316,00;   Not Available
 317,00;   Not Available
 318,00;   Not Available
 319,00;   Not Available
 320,00;   Not Available
 321,00;   Not Available
 322,00;   Not Available
 323,00;   Not Available
 324,00;   Not Available
 325,00;   Not Available
 326,00;   Not Available
 327,00;   Not Available
 328,00;   Not Available
 329,00;   Not Available
 330,00;   Not Available
 331,00;   Not Available
 332,00;   Not Available
 333,00;   Not Available
 334,00;   Not Available
 335,00;   Not Available
 336,00;   Not Available
 337,00;   Not Available
 338,00;   Not Available
 339,00;   Not Available
 340,00;   Not Available
 341,00;   Not Available
 342,00;   Not Available
 343,00;    3,760;   -0,042; 5308,653
 344,00;   -6,292;    3,248; 5435,737
 345,00;    9,443;   -0,687; 5586,839
 346,00;    0,831;   -1,316; 5899,019
 347,00;   -1,435;    0,583; 6169,222
 348,00;    5,142;    4,643; 6334,159
 349,00;   -1,860;    1,589; 6593,907
 350,00;    3,264;   -0,161; 6639,549
 351,00;   -0,638;   -3,740; 6811,936
 352,00;    8,681;    4,863; 6805,536
 353,00;   10,049;    3,098; 6722,142
 354,00;   -0,183;   11,456; 6660,788
 355,00;    2,033;   -0,317; 6859,957
 356,00;   -6,170;    3,085; 7013,905
 357,00;   -6,392;    1,773; 7062,159
 358,00;    0,656;   -1,850; 7139,153
 359,00;   -7,897;    5,362; 7172,313
 360,00;    7,478;   -0,945; 7184,622
 361,00;    2,088;    4,640; 7271,278
 362,00;   -1,810;    1,986; 7267,726
 363,00;    4,156;   -1,653; 7353,291
 364,00;    1,420;    3,267; 7347,788
 365,00;  -16,043;   -2,526; 7376,368
 366,00;   -3,751;    5,423; 7425,625
 367,00;   10,282;    1,077; 7691,767
 368,00;   -2,937;   -0,660; 7901,408
 369,00;    0,285;   -2,295; 7832,170
 370,00;    3,450;    0,997; 8026,802
 371,00;    3,286;    0,108; 7804,205
 372,00;    3,149;   -0,688; 7872,014
 373,00;  -12,439;    1,758; 7907,641
 374,00;    6,761;    0,283; 7977,145
 375,00;   11,893;    0,361; 7791,377
 376,00;   -5,614;    1,476; 7795,045
 377,00;   12,066;    4,076; 7797,232
 378,00;    2,510;    4,427; 8369,540
 379,00;    5,792;    6,374; 8415,530
 380,00;    2,859;    4,474; 8362,086
 381,00;   -7,945;    8,202; 8145,759
 382,00;    3,134;    8,451; 8040,339
 383,00;    2,099;    3,121; 7942,856
 384,00;   -3,898;    2,617; 7877,278
 385,00;    4,096;    1,733; 7830,965
 386,00;    8,318;    3,665; 8065,170
 387,00;   -1,774;    7,203; 8047,448
 388,00;   -0,294;    4,292; 8521,671
 389,00;   -0,755;    3,476; 8246,824
 390,00;    3,286;   -3,709; 8205,581
 391,00;    4,642;    0,076; 7955,041
 392,00;    2,492;    7,527; 8241,355
 393,00;    5,818;    1,829; 8365,932
 394,00;   10,871;    9,557; 7975,822
 395,00;   16,216;   -2,359; 8086,842
 396,00;    6,517;    5,159; 8008,916
 397,00;    5,322;    7,819; 8328,379
 398,00;   -8,805;    0,294; 8563,734
 399,00;    3,844;    6,943; 8852,164
 400,00;    5,236;    5,366; 8319,759
 401,00;    3,125;    3,627; 7747,729
 402,00;   -4,916;    1,281; 7571,799
 403,00;   -2,333;    6,363; 7412,172
 404,00;    8,171;    5,728; 7669,434
 405,00;    7,577;    1,982; 7609,302
 406,00;    6,748;    0,823; 7620,879
 407,00;   -7,885;    6,431; 7442,482
 408,00;    3,029;    2,157; 7481,070
 409,00;    7,726;   -0,802; 7398,022
 410,00;    9,403;    2,440; 7427,271
 411,00;   -2,706;    3,476; 7405,718
 412,00;    2,172;    6,473; 7360,099
 413,00;    0,784;    2,681; 7486,115
 414,00;    6,633;    2,528; 7927,028
 415,00;   -5,159;    5,374; 7686,086
 416,00;   -1,255;    0,564; 7494,637
 417,00;   -9,128;    1,319; 7471,791
 418,00;    8,513;    3,676; 7560,669
 419,00;    2,735;    4,244; 7755,964
 420,00;    7,176;    3,001; 8012,610
 421,00;   -0,497;    6,532; 8465,100
 422,00;    2,118;    6,996; 9161,408
 423,00;   -4,237;   -2,817; 9191,825
 424,00;    5,305;   -0,062; 9271,484
 425,00;    4,576;    5,149; 8852,789
 426,00;   15,830;    2,015; 8801,746
 427,00;   -0,299;    2,890; 8997,735
 428,00;    1,940;    2,147; 9554,482
 429,00;    2,744;    2,279; 9685,289
 430,00;    1,155;    6,943;10238,988
 431,00;    5,149;    2,435;10520,281
 432,00;    7,684;    1,956; 9940,647
 433,00;   -9,331;    0,383; 9535,601
 434,00;    5,018;    3,284; 9904,623
 435,00;    7,504;    1,111;10198,457
 436,00;   22,217;    3,710;10046,201
 437,00;    8,036;    2,990;10107,762
 438,00;    4,735;   -1,790;10187,177
 439,00;    8,412;    0,801; 9930,316
 440,00;    7,137;    4,995; 9843,439
 441,00;    6,307;    4,683;10147,359
 442,00;    8,013;    1,708; 9880,016
 443,00;   13,839;    4,022; 9609,006
 444,00;    4,678;    4,970; 8842,917
 445,00;   13,658;    3,642; 8717,773
 446,00;    6,359;    0,294; 9108,867
 447,00;   10,032;    3,214; 9446,540
 448,00;    7,102;    1,678;10103,260
 449,00;   14,277;    4,529;10864,071
 450,00;    1,126;    0,285;11428,142
 451,00;    6,952;   -1,116;11859,538
 452,00;   11,061;    1,252;11920,851
 453,00;   14,403;    3,434;12365,451
 454,00;   -5,825;   -1,505;12348,034
 455,00;   -5,597;    4,028;12907,695
 456,00;   -3,463;    6,445;13043,195
 457,00;    8,057;    3,011;13154,216
 458,00;    1,270;    3,227;13466,441
 459,00;   -0,049;    1,747;13925,955
 460,00;   -5,247;    2,647;13797,224
 461,00;  -11,929;    4,310;13717,760
 462,00;    6,307;    2,955;13603,510
 463,00;    4,854;    1,672;13405,965
 464,00;    9,644;    2,324;14202,312
 465,00;    0,416;    6,023;14951,125
 466,00;   10,195;    2,250;15131,470
 467,00;   -1,048;   -3,115;14825,442
 468,00;   -0,062;    1,957;14679,288
 469,00;    4,125;   -1,137;14474,279
 470,00;    0,477;   -1,581;14051,918
 471,00;    0,302;    1,502;13976,505
 472,00;    0,649;    1,868;14369,674
 473,00;    2,140;   -0,932;14937,848
 474,00;   -1,740;    1,334;15444,499
 475,00;   -3,834;   -1,157;15589,378
 476,00;    8,300;    6,891;16010,549
 477,00;    4,095;   -2,285;15962,462
 478,00;   -1,021;    3,104;16332,794
 479,00;   -5,875;    5,322;16686,910
 480,00;    3,904;    0,553;17099,205
 481,00;   -0,392;    5,806;17484,386
 482,00;   -2,159;    3,372;17809,137
 483,00;    9,187;    2,125;17966,667
 484,00;   -6,370;   -3,126;18556,171
 485,00;    2,702;    1,445;22468,907
 486,00;    6,214;    0,811;31549,406
 487,00;   11,531;   -1,395;31339,104
 488,00;   12,544;    6,628;20056,548
 489,00;    4,354;    3,347;18925,110
 490,00;    5,280;    5,383;19158,655
 491,00;    6,381;    1,072;19219,379
 492,00;    8,100;    0,479;19039,717
 493,00;    2,486;    4,369;19073,019
 494,00;   -3,870;   -1,705;19310,317
 495,00;   -2,180;   -1,691;18904,344
 496,00;    8,880;    5,041;19320,323
 497,00;   -5,390;    0,713;19521,951
 498,00;   -2,196;    6,657;18975,697
 499,00;   -3,605;    0,021;19205,823
 500,00;    5,335;   -0,637;19409,174
 501,00;    2,785;    6,167;19400,656
 502,00;   11,021;    2,731;19825,945
 503,00;   -6,461;    3,819;19852,170
 504,00;   -6,063;    6,267;19545,973
 505,00;   11,867;    0,363;19039,183
 506,00;    9,078;    3,055;19003,583
 507,00;   -7,773;    0,945;18811,889
 508,00;   -6,408;   -1,997;18717,782
 509,00;    0,766;   -1,410;18586,254
 510,00;   -5,181;    3,725;18561,556
 511,00;    1,348;    2,462;18666,460
 512,00;    5,370;    1,534;18630,675
 513,00;    8,321;    9,685;18387,922
 514,00;    6,269;    6,780;18242,142
 515,00;    5,404;    5,326;17622,089
 516,00;   -4,614;    1,225;17554,524
 517,00;    7,939;    1,162;17230,740
 518,00;    4,846;   22,620;17035,085
 519,00;    7,200;    4,323;16742,225
 520,00;   13,287;    3,130;16657,887
 521,00;    5,191;    8,944;16327,533
 522,00;    0,129;    7,491;16240,052
 523,00;    9,218;   -2,718;16176,654
 524,00;    6,719;   -4,601;16443,395
 525,00;    2,059;    4,013;16357,991
 526,00;    0,487;    8,007;16480,530
 527,00;    9,758;    6,683;16252,598
 528,00;    1,937;    4,062;16653,785
 529,00;   -0,947;    4,644;16864,332
 530,00;   12,755;   -0,177;17253,771
 531,00;    9,491;   -0,185;17030,089
 532,00;   -5,511;    1,673;17490,817
 533,00;   -9,829;    0,578;18275,787
 534,00;    3,222;    6,339;19191,745
 535,00;    4,198;   -0,042;19583,412
 536,00;    7,315;   -5,456;19801,991
 537,00;    1,593;    3,493;19468,151
 538,00;    2,337;    3,718;19791,057
 539,00;    9,201;    7,833;19953,273
 540,00;   17,809;    2,284;19774,906
 541,00;   25,263;    4,635;19327,634
 542,00;   40,640;    0,439;19376,597
 543,00;   34,882;    1,270;19258,235
 544,00;   11,864;   -0,154;19421,154
 545,00;   29,998;    6,065;19569,175
 546,00;   49,942;   -1,895;19720,234
 547,00;   46,211;    0,648;19926,118
 548,00;   36,933;    0,086;20885,498
 549,00;   51,066;   -0,038;21048,594
 550,00;   55,339;    4,478;20441,229
 551,00;   73,223;    0,368;20291,522
 552,00;   87,233;   -0,605;20750,020
 553,00;  100,299;    6,332;21136,333
 554,00;  117,260;    3,933;21175,515
 555,00;  136,715;    2,375;21441,113
 556,00;  182,646;    0,634;22267,749
 557,00;  199,443;    1,533;22532,690
 558,00;  245,915;    4,612;23078,812
 559,00;  291,351;    3,711;23491,301
 560,00;  296,300;   -1,764;24464,614
 561,00;  379,019;    6,008;25434,026
 562,00;  433,920;    2,368;25900,670
 563,00;  500,543;   -1,849;26285,369
 564,00;  567,146;   11,938;26912,675
 565,00;  649,564;    5,430;27477,788
 566,00;  771,269;    2,382;27874,917
 567,00;  859,391;    3,512;28666,529
 568,00;  963,546;    2,958;29770,636
 569,00; 1096,509;   -0,522;31102,097
 570,00; 1308,051;    0,188;32978,253
 571,00; 1489,716;    2,910;34369,629
 572,00; 1792,901;    3,662;35240,696
 573,00; 1989,317;   -1,779;35774,339
 574,00; 2252,428;    2,880;36874,327
 575,00; 2618,585;    0,981;37501,588
 576,00; 2948,258;    7,072;37331,900
 577,00; 3506,666;    6,284;37778,065
 578,00; 3839,872;   -2,775;38695,355
 579,00; 4384,086;    6,153;38248,724
 580,00; 4921,356;    4,260;37071,396
 581,00; 5604,727;    5,770;38578,649
 582,00; 6181,502;    2,590;39207,020
 583,00; 7272,999;    5,177;37470,977
 584,00; 7964,991;    5,213;35636,726
 585,00; 8870,365;    2,963;36323,937
 586,00;10207,763;    0,225;36611,662
 587,00;11146,756;    2,959;36328,456
 588,00;11869,831;    7,420;36086,156
 589,00;12552,608;    5,812;35896,728
 590,00;13010,522;    5,054;35650,694
 591,00;11898,531;    8,888;35815,884
 592,00;10471,268;    6,022;36089,818
 593,00; 8878,091;   -0,248;36859,857
 594,00; 7404,802;   -1,801;36792,130
 595,00; 6012,833;    3,127;36973,920
 596,00; 4911,523;    0,218;36879,888
 597,00; 4121,057;    6,610;37328,150
 598,00; 3355,352;    0,515;37101,256
 599,00; 2820,674;    1,860;37353,732
 600,00; 2336,812;    5,298;37386,589
 601,00; 1994,474;    2,013;37851,726
 602,00; 1624,196;    0,092;36887,099
 603,00; 1355,411;    0,589;37382,548
 604,00; 1054,203;    3,939;36696,808
 605,00;  857,034;    4,699;36721,164
 606,00;  705,157;    1,771;36169,331
 607,00;  572,946;    4,815;36331,526
 608,00;  480,901;    7,694;35668,702
 609,00;  405,380;   -1,222;35820,190
 610,00;  333,927;    4,886;35288,211
 611,00;  307,067;    4,182;35331,259
 612,00;  279,204;   -0,146;34836,154
 613,00;  230,819;   -2,113;34671,862
 614,00;  194,940;    0,070;34298,335
 615,00;  153,187;    0,562;34331,296
 616,00;  137,552;    2,960;34028,695
 617,00;  108,110;    5,008;34144,864
 618,00;   88,343;    2,960;34200,385
 619,00;   83,712;    1,023;34374,462
 620,00;   59,164;    2,619;34782,222
 621,00;   61,013;    6,023;35152,758
 622,00;   50,422;    0,418;35441,372
 623,00;   51,512;    5,531;36021,990
 624,00;   41,544;    0,388;36494,263
 625,00;   41,958;    6,006;36262,749
 626,00;   32,838;    1,077;36732,193
 627,00;   31,417;    5,224;36698,499
 628,00;   20,492;    0,370;37373,709
 629,00;   32,039;    9,106;37579,336
 630,00;   21,889;   -0,291;38028,031
 631,00;   17,747;    3,879;38202,109
 632,00;    7,269;    5,007;38990,489
 633,00;   10,606;    0,551;39293,266
 634,00;    5,638;    0,404;40032,573
 635,00;    7,422;    3,114;40600,067
 636,00;   10,543;    5,063;41558,948
 637,00;    4,843;    2,150;41885,449
 638,00;    0,432;    2,875;42892,711
 639,00;   18,484;    2,905;43655,095
 640,00;    7,923;    3,107;44176,099
 641,00;    1,431;    4,516;44978,812
 642,00;    3,222;    6,812;45765,159
 643,00;    8,257;    7,026;46324,008
 644,00;   15,468;    5,651;46714,845
 645,00;    6,897;    0,864;47229,471
 646,00;    8,958;    0,634;47893,808
 647,00;    1,168;    2,331;48047,108
 648,00;    2,079;    3,025;48312,216
 649,00;   16,374;    4,851;48508,625
 650,00;    3,562;    0,434;48522,038
 651,00;   14,229;    3,312;49018,126
 652,00;    1,545;    2,491;48531,035
 653,00;    8,883;    0,635;48870,640
 654,00;   10,205;    0,401;48778,588
 655,00;   10,763;   -0,224;49845,531
 656,00;   15,336;   -0,043;55463,470
 657,00;   -0,772;    0,637;56631,300
 658,00;    8,604;    8,040;49246,714
 659,00;    9,738;    2,697;49158,694
 660,00;   13,818;    2,498;48768,216
 661,00;    1,081;    4,144;48814,878
 662,00;    3,027;    5,911;48876,194
 663,00;   13,065;    3,329;48702,559
 664,00;    6,890;    1,404;48892,247
 665,00;    6,653;    2,870;49183,260
 666,00;   12,819;    1,339;49689,752
 667,00;    5,676;    2,657;49188,088
 668,00;    6,992;    2,678;49895,399
 669,00;   13,446;    3,936;49712,233
 670,00;    3,090;    2,760;50304,498
 671,00;   14,882;    0,201;50279,333
 672,00;   -0,483;    6,155;50457,989
 673,00;    1,858;    6,194;50480,294
 674,00;    4,809;    6,817;51278,567
 675,00;    6,941;    4,144;50519,404
 676,00;    6,361;    4,146;51341,541
 677,00;    7,673;    5,625;50461,849
 678,00;   10,472;    1,109;50993,719
 679,00;    5,748;    4,677;50473,464
 680,00;   10,535;    4,174;50803,425
 681,00;   14,664;    0,235;49968,370
 682,00;    8,396;    0,662;50400,417
 683,00;    3,806;    2,125;49930,562
 684,00;    0,126;    7,792;49692,460
 685,00;    5,542;    3,155;49829,487
 686,00;   10,680;    5,728;49799,843
 687,00;    8,540;    2,544;50213,077
 688,00;    0,473;    5,236;49460,159
 689,00;    1,177;    3,807;50051,820
 690,00;    8,219;   -2,713;49086,613
 691,00;   13,706;    5,767;50208,881
 692,00;    9,824;    8,461;49553,000
 693,00;    5,296;   -4,389;49815,210
 694,00;    8,292;   -4,831;49597,372
 695,00;   13,496;    1,650;49860,159
 696,00;   -5,201;    0,391;49573,614
 697,00;    3,268;    3,312;50198,054
 698,00;    2,603;    5,182;49775,512
 699,00;    9,843;    1,389;49993,374
 700,00;    1,164;    5,814;50249,553
 701,00;   11,348;   -6,151;49671,834
 702,00;    2,422;   24,422;50178,262
 703,00;   10,465;    1,372;49507,536
 704,00;   16,249;    2,128;49640,561
 705,00;   -9,418;    2,489;49545,116
 706,00;    7,970;    6,002;49614,926
 707,00;   -7,693;    5,496;49508,597
 708,00;    6,362;    0,281;49185,260
 709,00;    0,002;    0,928;48762,067
 710,00;   12,458;    0,257;48784,377
 711,00;    7,498;    2,116;48442,609
 712,00;    4,792;    2,398;48379,045
 713,00;    4,247;    3,319;48124,926
 714,00;    0,213;    3,323;47788,560
 715,00;    1,906;    2,670;47352,499
 716,00;   -5,791;    1,001;47327,557
 717,00;    5,674;   -0,767;47075,032
 718,00;    1,563;    4,123;46231,429
 719,00;    5,032;    4,611;46379,970
 720,00;    8,085;    5,204;45934,552
 721,00;   -1,554;    5,484;46184,420
 722,00;    2,211;   -1,745;45333,735
 723,00;   -2,959;   -4,147;45312,754
 724,00;   10,158;    1,669;45384,225
 725,00;    5,297;    3,052;45169,462
 726,00;    1,390;   -1,233;45215,307
 727,00;    0,520;    4,459;45402,216
 728,00;    4,282;    3,743;45198,493
 729,00;   -0,044;   -0,075;45036,927
 730,00;    3,565;    2,884;45281,836
 731,00;   -6,618;    2,623;45243,883
 732,00;    5,302;    9,943;45542,623
 733,00;    5,925;   -1,006;45407,017
 734,00;    0,076;   -3,252;45594,318
 735,00;   -4,861;   -1,722;45662,838
 736,00;   13,444;    6,782;45648,534
 737,00;   -1,417;    7,536;45893,661
 738,00;    3,459;    8,522;45643,223
 739,00;    1,621;    7,767;45171,118
 740,00;    1,302;    2,215;45144,134
 741,00;    2,336;    3,690;45207,829
 742,00;   -2,387;    4,659;45004,046
 743,00;    3,972;    5,013;44853,548
 744,00;   -2,702;    1,821;44322,740
 745,00;    5,015;    7,429;44563,896
 746,00;   -3,577;    1,159;44189,251
 747,00;   -1,372;    8,505;43951,240
 748,00;    4,979;    7,888;43273,005
 749,00;   -3,930;    2,018;43377,164
 750,00;    4,690;    3,416;43159,180
 751,00;    0,800;    4,206;42515,226
 752,00;    0,516;    5,343;42079,535
 753,00;    4,949;    5,282;41340,851
 754,00;    8,355;    2,805;41319,095
 755,00;   11,513;    3,716;40276,796
 756,00;   -3,491;    6,277;40243,016
 757,00;    5,404;    3,754;39576,232
 758,00;   -5,643;    7,402;39704,427
 759,00;  -14,473;    7,962;39000,068
 760,00;    2,614;    0,977;38547,462
 761,00;   -8,966;    4,183;38153,991
 762,00;   -7,504;    3,050;37786,002
 763,00;    4,346;    5,642;37426,534
 764,00;   -1,099;    1,250;37181,135
 765,00;   -6,041;   -0,754;37171,447
 766,00;    2,422;    5,452;36472,322
 767,00;    4,428;    4,444;36253,979
 768,00;    2,037;    1,429;36376,863
 769,00;    9,707;   -1,182;36175,867
 770,00;  -10,681;   -1,209;35848,783
 771,00;    0,569;   10,193;36034,098
 772,00;   -1,995;    1,801;35733,893
 773,00;   -4,330;    6,087;35890,631
 774,00;    3,715;    5,606;35598,640
 775,00;    3,966;    1,026;35517,664
 776,00;    0,237;    6,113;35840,170
 777,00;    0,779;    3,884;35458,882
 778,00;    5,011;    1,515;35524,560
 779,00;   -5,967;    0,783;35476,436
 780,00;    1,678;    4,404;35814,053
 781,00;   17,939;    3,630;35835,393
 782,00;    0,795;   -0,328;36141,052
 783,00;    2,201;    0,491;36275,895
 784,00;   -2,225;    7,288;36455,008
 785,00;   -4,528;    1,558;36454,477
 786,00;   -1,580;    4,119;36609,201
 787,00;   -7,255;    3,715;36901,355
 788,00;    3,803;    4,785;36724,684
 789,00;    5,392;    1,940;36884,133
 790,00;   -9,010;    2,064;36639,539
 791,00;   -0,501;    5,108;37085,536
 792,00;    1,264;    6,224;36549,884
 793,00;    8,790;    6,098;36684,174
 794,00;   -2,083;    5,712;36363,303
 795,00;    2,726;   -0,945;36473,159
 796,00;   -0,626;    0,387;36404,456
 797,00;    5,940;    2,339;36042,595
 798,00;   -3,037;   -3,596;35780,798
 799,00;    0,145;    4,808;35420,531
 800,00;   -8,032;    4,171;35284,582
 801,00;   -1,085;    5,810;34440,825
 802,00;   -2,975;   -2,867;34443,663
 803,00;    1,153;    2,139;34307,753
 804,00;   -5,031;    2,001;34113,270
 805,00;    2,178;    2,988;33636,256
 806,00;    4,489;   -0,298;33060,784
 807,00;    5,275;   -0,155;33033,672
 808,00;    1,751;    4,308;32711,975
